#  E (eV)   dos(E)     Int dos(E) EFermi =    6.302 eV
  -5.865  0.0000E+00  0.0000E+00
  -5.855  0.2086E-02  0.6955E-05
  -5.845  0.8346E-02  0.5564E-04
  -5.835  0.1878E-01  0.1878E-03
  -5.825  0.3338E-01  0.4451E-03
  -5.815  0.5216E-01  0.8694E-03
  -5.805  0.7511E-01  0.1502E-02
  -5.795  0.5756E-01  0.2449E-02
  -5.785  0.6414E-01  0.3057E-02
  -5.775  0.7085E-01  0.3732E-02
  -5.765  0.7771E-01  0.4475E-02
  -5.755  0.8469E-01  0.5287E-02
  -5.745  0.9182E-01  0.6169E-02
  -5.735  0.1067E+00  0.7158E-02
  -5.725  0.1212E+00  0.8299E-02
  -5.715  0.1341E+00  0.9577E-02
  -5.705  0.1455E+00  0.1098E-01
  -5.695  0.1553E+00  0.1248E-01
  -5.685  0.1635E+00  0.1408E-01
  -5.675  0.1388E+00  0.1550E-01
  -5.665  0.1422E+00  0.1690E-01
  -5.655  0.1457E+00  0.1834E-01
  -5.645  0.1493E+00  0.1982E-01
  -5.635  0.1529E+00  0.2133E-01
  -5.625  0.1567E+00  0.2287E-01
  -5.615  0.1592E+00  0.2446E-01
  -5.605  0.1617E+00  0.2606E-01
  -5.595  0.1645E+00  0.2769E-01
  -5.585  0.1675E+00  0.2935E-01
  -5.575  0.1707E+00  0.3104E-01
  -5.565  0.1743E+00  0.3277E-01
  -5.555  0.1787E+00  0.3453E-01
  -5.545  0.1834E+00  0.3634E-01
  -5.535  0.1882E+00  0.3820E-01
  -5.525  0.1931E+00  0.4010E-01
  -5.515  0.1982E+00  0.4206E-01
  -5.505  0.2034E+00  0.4407E-01
  -5.495  0.2110E+00  0.4614E-01
  -5.485  0.2176E+00  0.4828E-01
  -5.475  0.2229E+00  0.5049E-01
  -5.465  0.2268E+00  0.5274E-01
  -5.455  0.2292E+00  0.5502E-01
  -5.445  0.2303E+00  0.5732E-01
  -5.435  0.2283E+00  0.5960E-01
  -5.425  0.2307E+00  0.6189E-01
  -5.415  0.2331E+00  0.6421E-01
  -5.405  0.2354E+00  0.6655E-01
  -5.395  0.2376E+00  0.6892E-01
  -5.385  0.2398E+00  0.7130E-01
  -5.375  0.2403E+00  0.7371E-01
  -5.365  0.2410E+00  0.7611E-01
  -5.355  0.2421E+00  0.7853E-01
  -5.345  0.2437E+00  0.8096E-01
  -5.335  0.2457E+00  0.8340E-01
  -5.325  0.2481E+00  0.8587E-01
  -5.315  0.2507E+00  0.8836E-01
  -5.305  0.2533E+00  0.9088E-01
  -5.295  0.2560E+00  0.9343E-01
  -5.285  0.2588E+00  0.9601E-01
  -5.275  0.2616E+00  0.9861E-01
  -5.265  0.2643E+00  0.1012E+00
  -5.255  0.2672E+00  0.1039E+00
  -5.245  0.2701E+00  0.1066E+00
  -5.235  0.2732E+00  0.1093E+00
  -5.225  0.2763E+00  0.1120E+00
  -5.215  0.2796E+00  0.1148E+00
  -5.205  0.2831E+00  0.1176E+00
  -5.195  0.2866E+00  0.1205E+00
  -5.185  0.2901E+00  0.1234E+00
  -5.175  0.2938E+00  0.1263E+00
  -5.165  0.2975E+00  0.1292E+00
  -5.155  0.3014E+00  0.1322E+00
  -5.145  0.3052E+00  0.1353E+00
  -5.135  0.3086E+00  0.1383E+00
  -5.125  0.3112E+00  0.1414E+00
  -5.115  0.3132E+00  0.1446E+00
  -5.105  0.3144E+00  0.1477E+00
  -5.095  0.3150E+00  0.1508E+00
  -5.085  0.3185E+00  0.1540E+00
  -5.075  0.3205E+00  0.1572E+00
  -5.065  0.3225E+00  0.1604E+00
  -5.055  0.3243E+00  0.1637E+00
  -5.045  0.3262E+00  0.1669E+00
  -5.035  0.3279E+00  0.1702E+00
  -5.025  0.3294E+00  0.1735E+00
  -5.015  0.3309E+00  0.1768E+00
  -5.005  0.3324E+00  0.1801E+00
  -4.995  0.3341E+00  0.1834E+00
  -4.985  0.3359E+00  0.1868E+00
  -4.975  0.3377E+00  0.1901E+00
  -4.965  0.3396E+00  0.1935E+00
  -4.955  0.3414E+00  0.1969E+00
  -4.945  0.3433E+00  0.2004E+00
  -4.935  0.3451E+00  0.2038E+00
  -4.925  0.3470E+00  0.2073E+00
  -4.915  0.3487E+00  0.2107E+00
  -4.905  0.3502E+00  0.2142E+00
  -4.895  0.3519E+00  0.2177E+00
  -4.885  0.3537E+00  0.2213E+00
  -4.875  0.3556E+00  0.2248E+00
  -4.865  0.3577E+00  0.2284E+00
  -4.855  0.3600E+00  0.2320E+00
  -4.845  0.3625E+00  0.2356E+00
  -4.835  0.3651E+00  0.2392E+00
  -4.825  0.3678E+00  0.2429E+00
  -4.815  0.3706E+00  0.2466E+00
  -4.805  0.3734E+00  0.2503E+00
  -4.795  0.3762E+00  0.2540E+00
  -4.785  0.3791E+00  0.2578E+00
  -4.775  0.3819E+00  0.2616E+00
  -4.765  0.3847E+00  0.2655E+00
  -4.755  0.3875E+00  0.2693E+00
  -4.745  0.3903E+00  0.2732E+00
  -4.735  0.3934E+00  0.2771E+00
  -4.725  0.3966E+00  0.2811E+00
  -4.715  0.3997E+00  0.2851E+00
  -4.705  0.4030E+00  0.2891E+00
  -4.695  0.4062E+00  0.2931E+00
  -4.685  0.4095E+00  0.2972E+00
  -4.675  0.4125E+00  0.3013E+00
  -4.665  0.4151E+00  0.3054E+00
  -4.655  0.4173E+00  0.3096E+00
  -4.645  0.4191E+00  0.3138E+00
  -4.635  0.4204E+00  0.3180E+00
  -4.625  0.4207E+00  0.3222E+00
  -4.615  0.4223E+00  0.3264E+00
  -4.605  0.4238E+00  0.3306E+00
  -4.595  0.4252E+00  0.3349E+00
  -4.585  0.4266E+00  0.3391E+00
  -4.575  0.4279E+00  0.3434E+00
  -4.565  0.4297E+00  0.3477E+00
  -4.555  0.4319E+00  0.3520E+00
  -4.545  0.4344E+00  0.3563E+00
  -4.535  0.4373E+00  0.3607E+00
  -4.525  0.4396E+00  0.3651E+00
  -4.515  0.4417E+00  0.3695E+00
  -4.505  0.4438E+00  0.3739E+00
  -4.495  0.4459E+00  0.3784E+00
  -4.485  0.4480E+00  0.3828E+00
  -4.475  0.4500E+00  0.3873E+00
  -4.465  0.4521E+00  0.3918E+00
  -4.455  0.4542E+00  0.3964E+00
  -4.445  0.4563E+00  0.4009E+00
  -4.435  0.4585E+00  0.4055E+00
  -4.425  0.4606E+00  0.4101E+00
  -4.415  0.4628E+00  0.4147E+00
  -4.405  0.4650E+00  0.4193E+00
  -4.395  0.4673E+00  0.4240E+00
  -4.385  0.4696E+00  0.4287E+00
  -4.375  0.4718E+00  0.4334E+00
  -4.365  0.4741E+00  0.4381E+00
  -4.355  0.4764E+00  0.4429E+00
  -4.345  0.4787E+00  0.4477E+00
  -4.335  0.4810E+00  0.4525E+00
  -4.325  0.4833E+00  0.4573E+00
  -4.315  0.4854E+00  0.4621E+00
  -4.305  0.4878E+00  0.4670E+00
  -4.295  0.4903E+00  0.4719E+00
  -4.285  0.4931E+00  0.4768E+00
  -4.275  0.4958E+00  0.4817E+00
  -4.265  0.4987E+00  0.4867E+00
  -4.255  0.5016E+00  0.4917E+00
  -4.245  0.5046E+00  0.4967E+00
  -4.235  0.5077E+00  0.5018E+00
  -4.225  0.5108E+00  0.5069E+00
  -4.215  0.5140E+00  0.5120E+00
  -4.205  0.5173E+00  0.5172E+00
  -4.195  0.5206E+00  0.5224E+00
  -4.185  0.5239E+00  0.5276E+00
  -4.175  0.5273E+00  0.5328E+00
  -4.165  0.5308E+00  0.5381E+00
  -4.155  0.5342E+00  0.5435E+00
  -4.145  0.5378E+00  0.5488E+00
  -4.135  0.5414E+00  0.5542E+00
  -4.125  0.5450E+00  0.5596E+00
  -4.115  0.5484E+00  0.5651E+00
  -4.105  0.5516E+00  0.5706E+00
  -4.095  0.5547E+00  0.5761E+00
  -4.085  0.5573E+00  0.5817E+00
  -4.075  0.5593E+00  0.5873E+00
  -4.065  0.5621E+00  0.5929E+00
  -4.055  0.5649E+00  0.5985E+00
  -4.045  0.5677E+00  0.6042E+00
  -4.035  0.5704E+00  0.6099E+00
  -4.025  0.5730E+00  0.6156E+00
  -4.015  0.5759E+00  0.6213E+00
  -4.005  0.5788E+00  0.6271E+00
  -3.995  0.5817E+00  0.6329E+00
  -3.985  0.5846E+00  0.6388E+00
  -3.975  0.5876E+00  0.6446E+00
  -3.965  0.5905E+00  0.6505E+00
  -3.955  0.5934E+00  0.6564E+00
  -3.945  0.5970E+00  0.6624E+00
  -3.935  0.6010E+00  0.6684E+00
  -3.925  0.6053E+00  0.6744E+00
  -3.915  0.6099E+00  0.6805E+00
  -3.905  0.6150E+00  0.6866E+00
  -3.895  0.6193E+00  0.6928E+00
  -3.885  0.6235E+00  0.6990E+00
  -3.875  0.6277E+00  0.7052E+00
  -3.865  0.6321E+00  0.7115E+00
  -3.855  0.6364E+00  0.7179E+00
  -3.845  0.6408E+00  0.7243E+00
  -3.835  0.6455E+00  0.7307E+00
  -3.825  0.6504E+00  0.7372E+00
  -3.815  0.6556E+00  0.7437E+00
  -3.805  0.6610E+00  0.7503E+00
  -3.795  0.6666E+00  0.7569E+00
  -3.785  0.6725E+00  0.7636E+00
  -3.775  0.6786E+00  0.7704E+00
  -3.765  0.6859E+00  0.7772E+00
  -3.755  0.6938E+00  0.7841E+00
  -3.745  0.7015E+00  0.7911E+00
  -3.735  0.7092E+00  0.7981E+00
  -3.725  0.7167E+00  0.8053E+00
  -3.715  0.7243E+00  0.8125E+00
  -3.705  0.7314E+00  0.8197E+00
  -3.695  0.7386E+00  0.8271E+00
  -3.685  0.7461E+00  0.8345E+00
  -3.675  0.7540E+00  0.8420E+00
  -3.665  0.7622E+00  0.8496E+00
  -3.655  0.7708E+00  0.8573E+00
  -3.645  0.7798E+00  0.8650E+00
  -3.635  0.7891E+00  0.8729E+00
  -3.625  0.7986E+00  0.8808E+00
  -3.615  0.8083E+00  0.8888E+00
  -3.605  0.8183E+00  0.8970E+00
  -3.595  0.8284E+00  0.9052E+00
  -3.585  0.8387E+00  0.9135E+00
  -3.575  0.8866E+00  0.9222E+00
  -3.565  0.8902E+00  0.9311E+00
  -3.555  0.8879E+00  0.9400E+00
  -3.545  0.8796E+00  0.9488E+00
  -3.535  0.8652E+00  0.9575E+00
  -3.525  0.8678E+00  0.9662E+00
  -3.515  0.8755E+00  0.9749E+00
  -3.505  0.8833E+00  0.9837E+00
  -3.495  0.8930E+00  0.9926E+00
  -3.485  0.9054E+00  0.1002E+01
  -3.475  0.9197E+00  0.1011E+01
  -3.465  0.9426E+00  0.1020E+01
  -3.455  0.9365E+00  0.1030E+01
  -3.445  0.9219E+00  0.1039E+01
  -3.435  0.9079E+00  0.1048E+01
  -3.425  0.8943E+00  0.1057E+01
  -3.415  0.8800E+00  0.1066E+01
  -3.405  0.8752E+00  0.1075E+01
  -3.395  0.8722E+00  0.1084E+01
  -3.385  0.8690E+00  0.1092E+01
  -3.375  0.8657E+00  0.1101E+01
  -3.365  0.8622E+00  0.1110E+01
  -3.355  0.8587E+00  0.1118E+01
  -3.345  0.8552E+00  0.1127E+01
  -3.335  0.8518E+00  0.1135E+01
  -3.325  0.8485E+00  0.1144E+01
  -3.315  0.8453E+00  0.1152E+01
  -3.305  0.8422E+00  0.1161E+01
  -3.295  0.8391E+00  0.1169E+01
  -3.285  0.8361E+00  0.1178E+01
  -3.275  0.8330E+00  0.1186E+01
  -3.265  0.8299E+00  0.1194E+01
  -3.255  0.8263E+00  0.1203E+01
  -3.245  0.8212E+00  0.1211E+01
  -3.235  0.8145E+00  0.1219E+01
  -3.225  0.8076E+00  0.1227E+01
  -3.215  0.8014E+00  0.1235E+01
  -3.205  0.7971E+00  0.1243E+01
  -3.195  0.7942E+00  0.1251E+01
  -3.185  0.7914E+00  0.1259E+01
  -3.175  0.7889E+00  0.1267E+01
  -3.165  0.7851E+00  0.1275E+01
  -3.155  0.7814E+00  0.1283E+01
  -3.145  0.7779E+00  0.1290E+01
  -3.135  0.7745E+00  0.1298E+01
  -3.125  0.7712E+00  0.1306E+01
  -3.115  0.7681E+00  0.1314E+01
  -3.105  0.7651E+00  0.1321E+01
  -3.095  0.7623E+00  0.1329E+01
  -3.085  0.7597E+00  0.1337E+01
  -3.075  0.7572E+00  0.1344E+01
  -3.065  0.7553E+00  0.1352E+01
  -3.055  0.7537E+00  0.1359E+01
  -3.045  0.7520E+00  0.1367E+01
  -3.035  0.7501E+00  0.1374E+01
  -3.025  0.7479E+00  0.1382E+01
  -3.015  0.7456E+00  0.1389E+01
  -3.005  0.7431E+00  0.1397E+01
  -2.995  0.7397E+00  0.1404E+01
  -2.985  0.7361E+00  0.1411E+01
  -2.975  0.7324E+00  0.1419E+01
  -2.965  0.7288E+00  0.1426E+01
  -2.955  0.7250E+00  0.1433E+01
  -2.945  0.7212E+00  0.1441E+01
  -2.935  0.7175E+00  0.1448E+01
  -2.925  0.7140E+00  0.1455E+01
  -2.915  0.7104E+00  0.1462E+01
  -2.905  0.7123E+00  0.1469E+01
  -2.895  0.7657E+00  0.1477E+01
  -2.885  0.7417E+00  0.1484E+01
  -2.875  0.7213E+00  0.1491E+01
  -2.865  0.7078E+00  0.1499E+01
  -2.855  0.6981E+00  0.1506E+01
  -2.845  0.6927E+00  0.1512E+01
  -2.835  0.6888E+00  0.1519E+01
  -2.825  0.6849E+00  0.1526E+01
  -2.815  0.6811E+00  0.1533E+01
  -2.805  0.6774E+00  0.1540E+01
  -2.795  0.6738E+00  0.1547E+01
  -2.785  0.6702E+00  0.1553E+01
  -2.775  0.6666E+00  0.1560E+01
  -2.765  0.6631E+00  0.1567E+01
  -2.755  0.6597E+00  0.1573E+01
  -2.745  0.6564E+00  0.1580E+01
  -2.735  0.6531E+00  0.1586E+01
  -2.725  0.6498E+00  0.1593E+01
  -2.715  0.6467E+00  0.1599E+01
  -2.705  0.6435E+00  0.1606E+01
  -2.695  0.6403E+00  0.1612E+01
  -2.685  0.6370E+00  0.1619E+01
  -2.675  0.6336E+00  0.1625E+01
  -2.665  0.6301E+00  0.1631E+01
  -2.655  0.6266E+00  0.1638E+01
  -2.645  0.6234E+00  0.1644E+01
  -2.635  0.6204E+00  0.1650E+01
  -2.625  0.6175E+00  0.1656E+01
  -2.615  0.6148E+00  0.1662E+01
  -2.605  0.6125E+00  0.1669E+01
  -2.595  0.6106E+00  0.1675E+01
  -2.585  0.6090E+00  0.1681E+01
  -2.575  0.6076E+00  0.1687E+01
  -2.565  0.6064E+00  0.1693E+01
  -2.555  0.6055E+00  0.1699E+01
  -2.545  0.6047E+00  0.1705E+01
  -2.535  0.6044E+00  0.1711E+01
  -2.525  0.6051E+00  0.1717E+01
  -2.515  0.6064E+00  0.1723E+01
  -2.505  0.6077E+00  0.1729E+01
  -2.495  0.6084E+00  0.1735E+01
  -2.485  0.6083E+00  0.1741E+01
  -2.475  0.6083E+00  0.1748E+01
  -2.465  0.6084E+00  0.1754E+01
  -2.455  0.6080E+00  0.1760E+01
  -2.445  0.6074E+00  0.1766E+01
  -2.435  0.6063E+00  0.1772E+01
  -2.425  0.6050E+00  0.1778E+01
  -2.415  0.6032E+00  0.1784E+01
  -2.405  0.6012E+00  0.1790E+01
  -2.395  0.5987E+00  0.1796E+01
  -2.385  0.5957E+00  0.1802E+01
  -2.375  0.5916E+00  0.1808E+01
  -2.365  0.5860E+00  0.1814E+01
  -2.355  0.5787E+00  0.1820E+01
  -2.345  0.5700E+00  0.1825E+01
  -2.335  0.5603E+00  0.1831E+01
  -2.325  0.5498E+00  0.1837E+01
  -2.315  0.5464E+00  0.1842E+01
  -2.305  0.5428E+00  0.1847E+01
  -2.295  0.5390E+00  0.1853E+01
  -2.285  0.5349E+00  0.1858E+01
  -2.275  0.5307E+00  0.1864E+01
  -2.265  0.5262E+00  0.1869E+01
  -2.255  0.5214E+00  0.1874E+01
  -2.245  0.5165E+00  0.1879E+01
  -2.235  0.5124E+00  0.1884E+01
  -2.225  0.5089E+00  0.1890E+01
  -2.215  0.5049E+00  0.1895E+01
  -2.205  0.5005E+00  0.1900E+01
  -2.195  0.4955E+00  0.1905E+01
  -2.185  0.4904E+00  0.1910E+01
  -2.175  0.4858E+00  0.1914E+01
  -2.165  0.4805E+00  0.1919E+01
  -2.155  0.4747E+00  0.1924E+01
  -2.145  0.4681E+00  0.1929E+01
  -2.135  0.4597E+00  0.1933E+01
  -2.125  0.4496E+00  0.1938E+01
  -2.115  0.4394E+00  0.1942E+01
  -2.105  0.4292E+00  0.1947E+01
  -2.095  0.4189E+00  0.1951E+01
  -2.085  0.4084E+00  0.1955E+01
  -2.075  0.3980E+00  0.1959E+01
  -2.065  0.3876E+00  0.1963E+01
  -2.055  0.3775E+00  0.1967E+01
  -2.045  0.3866E+00  0.1971E+01
  -2.035  0.4425E+00  0.1975E+01
  -2.025  0.3669E+00  0.1979E+01
  -2.015  0.3067E+00  0.1982E+01
  -2.005  0.2879E+00  0.1985E+01
  -1.995  0.2493E+00  0.1988E+01
  -1.985  0.1939E+00  0.1990E+01
  -1.975  0.1634E+00  0.1992E+01
  -1.965  0.1370E+00  0.1993E+01
  -1.955  0.1148E+00  0.1995E+01
  -1.945  0.9676E-01  0.1996E+01
  -1.935  0.8285E-01  0.1997E+01
  -1.925  0.7227E-01  0.1997E+01
  -1.915  0.6217E-01  0.1998E+01
  -1.905  0.5229E-01  0.1999E+01
  -1.895  0.4266E-01  0.1999E+01
  -1.885  0.3325E-01  0.2000E+01
  -1.875  0.1991E-01  0.2000E+01
  -1.865  0.7582E-02  0.2000E+01
  -1.855  0.1092E-02  0.2000E+01
  -1.845  0.0000E+00  0.2000E+01
  -1.835  0.0000E+00  0.2000E+01
  -1.825  0.0000E+00  0.2000E+01
  -1.815  0.0000E+00  0.2000E+01
  -1.805  0.0000E+00  0.2000E+01
  -1.795  0.0000E+00  0.2000E+01
  -1.785  0.0000E+00  0.2000E+01
  -1.775  0.0000E+00  0.2000E+01
  -1.765  0.0000E+00  0.2000E+01
  -1.755  0.0000E+00  0.2000E+01
  -1.745  0.0000E+00  0.2000E+01
  -1.735  0.0000E+00  0.2000E+01
  -1.725  0.0000E+00  0.2000E+01
  -1.715  0.0000E+00  0.2000E+01
  -1.705  0.0000E+00  0.2000E+01
  -1.695  0.0000E+00  0.2000E+01
  -1.685  0.0000E+00  0.2000E+01
  -1.675  0.0000E+00  0.2000E+01
  -1.665  0.0000E+00  0.2000E+01
  -1.655  0.0000E+00  0.2000E+01
  -1.645  0.0000E+00  0.2000E+01
  -1.635  0.0000E+00  0.2000E+01
  -1.625  0.0000E+00  0.2000E+01
  -1.615  0.0000E+00  0.2000E+01
  -1.605  0.0000E+00  0.2000E+01
  -1.595  0.0000E+00  0.2000E+01
  -1.585  0.0000E+00  0.2000E+01
  -1.575  0.0000E+00  0.2000E+01
  -1.565  0.0000E+00  0.2000E+01
  -1.555  0.0000E+00  0.2000E+01
  -1.545  0.0000E+00  0.2000E+01
  -1.535  0.0000E+00  0.2000E+01
  -1.525  0.0000E+00  0.2000E+01
  -1.515  0.0000E+00  0.2000E+01
  -1.505  0.0000E+00  0.2000E+01
  -1.495  0.0000E+00  0.2000E+01
  -1.485  0.0000E+00  0.2000E+01
  -1.475  0.0000E+00  0.2000E+01
  -1.465  0.0000E+00  0.2000E+01
  -1.455  0.0000E+00  0.2000E+01
  -1.445  0.0000E+00  0.2000E+01
  -1.435  0.0000E+00  0.2000E+01
  -1.425  0.0000E+00  0.2000E+01
  -1.415  0.0000E+00  0.2000E+01
  -1.405  0.5533E-01  0.2000E+01
  -1.395  0.5392E-01  0.2001E+01
  -1.385  0.8893E-01  0.2002E+01
  -1.375  0.1175E+00  0.2003E+01
  -1.365  0.1563E+00  0.2004E+01
  -1.355  0.1620E+00  0.2006E+01
  -1.345  0.1578E+00  0.2008E+01
  -1.335  0.1605E+00  0.2009E+01
  -1.325  0.1774E+00  0.2011E+01
  -1.315  0.2112E+00  0.2013E+01
  -1.305  0.2298E+00  0.2015E+01
  -1.295  0.2482E+00  0.2017E+01
  -1.285  0.2673E+00  0.2020E+01
  -1.275  0.2869E+00  0.2023E+01
  -1.265  0.3071E+00  0.2026E+01
  -1.255  0.3229E+00  0.2029E+01
  -1.245  0.3300E+00  0.2032E+01
  -1.235  0.3402E+00  0.2035E+01
  -1.225  0.3510E+00  0.2039E+01
  -1.215  0.3619E+00  0.2042E+01
  -1.205  0.3728E+00  0.2046E+01
  -1.195  0.3839E+00  0.2050E+01
  -1.185  0.3950E+00  0.2054E+01
  -1.175  0.4063E+00  0.2058E+01
  -1.165  0.4176E+00  0.2062E+01
  -1.155  0.4290E+00  0.2066E+01
  -1.145  0.4403E+00  0.2071E+01
  -1.135  0.4516E+00  0.2075E+01
  -1.125  0.4629E+00  0.2080E+01
  -1.115  0.4741E+00  0.2084E+01
  -1.105  0.4861E+00  0.2089E+01
  -1.095  0.4984E+00  0.2094E+01
  -1.085  0.5106E+00  0.2099E+01
  -1.075  0.5229E+00  0.2104E+01
  -1.065  0.5352E+00  0.2109E+01
  -1.055  0.5460E+00  0.2115E+01
  -1.045  0.5547E+00  0.2120E+01
  -1.035  0.5629E+00  0.2126E+01
  -1.025  0.5706E+00  0.2132E+01
  -1.015  0.5778E+00  0.2137E+01
  -1.005  0.5845E+00  0.2143E+01
  -0.995  0.5906E+00  0.2149E+01
  -0.985  0.5963E+00  0.2155E+01
  -0.975  0.6014E+00  0.2161E+01
  -0.965  0.6061E+00  0.2167E+01
  -0.955  0.6102E+00  0.2173E+01
  -0.945  0.6325E+00  0.2179E+01
  -0.935  0.6523E+00  0.2186E+01
  -0.925  0.6657E+00  0.2192E+01
  -0.915  0.6771E+00  0.2199E+01
  -0.905  0.6878E+00  0.2206E+01
  -0.895  0.6991E+00  0.2213E+01
  -0.885  0.7114E+00  0.2220E+01
  -0.875  0.7657E+00  0.2227E+01
  -0.865  0.7891E+00  0.2235E+01
  -0.855  0.8139E+00  0.2243E+01
  -0.845  0.8400E+00  0.2252E+01
  -0.835  0.8653E+00  0.2260E+01
  -0.825  0.8920E+00  0.2269E+01
  -0.815  0.9271E+00  0.2278E+01
  -0.805  0.9682E+00  0.2287E+01
  -0.795  0.1013E+01  0.2297E+01
  -0.785  0.1063E+01  0.2308E+01
  -0.775  0.1127E+01  0.2319E+01
  -0.765  0.1208E+01  0.2330E+01
  -0.755  0.1263E+01  0.2343E+01
  -0.745  0.1327E+01  0.2356E+01
  -0.735  0.1394E+01  0.2369E+01
  -0.725  0.1450E+01  0.2383E+01
  -0.715  0.1484E+01  0.2398E+01
  -0.705  0.1483E+01  0.2413E+01
  -0.695  0.1475E+01  0.2428E+01
  -0.685  0.1471E+01  0.2442E+01
  -0.675  0.1470E+01  0.2457E+01
  -0.665  0.1471E+01  0.2472E+01
  -0.655  0.1472E+01  0.2487E+01
  -0.645  0.1474E+01  0.2501E+01
  -0.635  0.1474E+01  0.2516E+01
  -0.625  0.1470E+01  0.2531E+01
  -0.615  0.1460E+01  0.2545E+01
  -0.605  0.1446E+01  0.2560E+01
  -0.595  0.1429E+01  0.2574E+01
  -0.585  0.1407E+01  0.2589E+01
  -0.575  0.1378E+01  0.2602E+01
  -0.565  0.1348E+01  0.2616E+01
  -0.555  0.1318E+01  0.2629E+01
  -0.545  0.1287E+01  0.2642E+01
  -0.535  0.1255E+01  0.2655E+01
  -0.525  0.1222E+01  0.2668E+01
  -0.515  0.1188E+01  0.2680E+01
  -0.505  0.1153E+01  0.2691E+01
  -0.495  0.1121E+01  0.2703E+01
  -0.485  0.1089E+01  0.2714E+01
  -0.475  0.1059E+01  0.2724E+01
  -0.465  0.1030E+01  0.2735E+01
  -0.455  0.1002E+01  0.2745E+01
  -0.445  0.9759E+00  0.2755E+01
  -0.435  0.9530E+00  0.2765E+01
  -0.425  0.9332E+00  0.2774E+01
  -0.415  0.9165E+00  0.2783E+01
  -0.405  0.9016E+00  0.2792E+01
  -0.395  0.8875E+00  0.2801E+01
  -0.385  0.8741E+00  0.2810E+01
  -0.375  0.8611E+00  0.2819E+01
  -0.365  0.8486E+00  0.2827E+01
  -0.355  0.8365E+00  0.2836E+01
  -0.345  0.8248E+00  0.2844E+01
  -0.335  0.8135E+00  0.2852E+01
  -0.325  0.8025E+00  0.2860E+01
  -0.315  0.7917E+00  0.2868E+01
  -0.305  0.7813E+00  0.2876E+01
  -0.295  0.7711E+00  0.2884E+01
  -0.285  0.7612E+00  0.2892E+01
  -0.275  0.7517E+00  0.2899E+01
  -0.265  0.7424E+00  0.2907E+01
  -0.255  0.7334E+00  0.2914E+01
  -0.245  0.7247E+00  0.2921E+01
  -0.235  0.7163E+00  0.2929E+01
  -0.225  0.7083E+00  0.2936E+01
  -0.215  0.7005E+00  0.2943E+01
  -0.205  0.6930E+00  0.2950E+01
  -0.195  0.6858E+00  0.2957E+01
  -0.185  0.6788E+00  0.2963E+01
  -0.175  0.6722E+00  0.2970E+01
  -0.165  0.6658E+00  0.2977E+01
  -0.155  0.6597E+00  0.2983E+01
  -0.145  0.6540E+00  0.2990E+01
  -0.135  0.6485E+00  0.2997E+01
  -0.125  0.6432E+00  0.3003E+01
  -0.115  0.6380E+00  0.3009E+01
  -0.105  0.6328E+00  0.3016E+01
  -0.095  0.6277E+00  0.3022E+01
  -0.085  0.6227E+00  0.3028E+01
  -0.075  0.6177E+00  0.3034E+01
  -0.065  0.6129E+00  0.3041E+01
  -0.055  0.6081E+00  0.3047E+01
  -0.045  0.6034E+00  0.3053E+01
  -0.035  0.5988E+00  0.3059E+01
  -0.025  0.5943E+00  0.3065E+01
  -0.015  0.5899E+00  0.3071E+01
  -0.005  0.5856E+00  0.3077E+01
   0.005  0.5813E+00  0.3082E+01
   0.015  0.5771E+00  0.3088E+01
   0.025  0.5731E+00  0.3094E+01
   0.035  0.5691E+00  0.3100E+01
   0.045  0.5651E+00  0.3105E+01
   0.055  0.5612E+00  0.3111E+01
   0.065  0.5574E+00  0.3117E+01
   0.075  0.5536E+00  0.3122E+01
   0.085  0.5498E+00  0.3128E+01
   0.095  0.5461E+00  0.3133E+01
   0.105  0.5424E+00  0.3139E+01
   0.115  0.5387E+00  0.3144E+01
   0.125  0.5350E+00  0.3149E+01
   0.135  0.5314E+00  0.3155E+01
   0.145  0.5277E+00  0.3160E+01
   0.155  0.5239E+00  0.3165E+01
   0.165  0.5193E+00  0.3170E+01
   0.175  0.5139E+00  0.3176E+01
   0.185  0.5089E+00  0.3181E+01
   0.195  0.5048E+00  0.3186E+01
   0.205  0.5008E+00  0.3191E+01
   0.215  0.4969E+00  0.3196E+01
   0.225  0.4930E+00  0.3201E+01
   0.235  0.4892E+00  0.3206E+01
   0.245  0.4854E+00  0.3211E+01
   0.255  0.4817E+00  0.3215E+01
   0.265  0.4780E+00  0.3220E+01
   0.275  0.4745E+00  0.3225E+01
   0.285  0.4710E+00  0.3230E+01
   0.295  0.4676E+00  0.3234E+01
   0.305  0.4642E+00  0.3239E+01
   0.315  0.4609E+00  0.3244E+01
   0.325  0.4576E+00  0.3248E+01
   0.335  0.4543E+00  0.3253E+01
   0.345  0.4512E+00  0.3257E+01
   0.355  0.4480E+00  0.3262E+01
   0.365  0.4449E+00  0.3266E+01
   0.375  0.4419E+00  0.3271E+01
   0.385  0.4389E+00  0.3275E+01
   0.395  0.4359E+00  0.3279E+01
   0.405  0.4330E+00  0.3284E+01
   0.415  0.4301E+00  0.3288E+01
   0.425  0.4273E+00  0.3292E+01
   0.435  0.4245E+00  0.3297E+01
   0.445  0.4218E+00  0.3301E+01
   0.455  0.4191E+00  0.3305E+01
   0.465  0.4164E+00  0.3309E+01
   0.475  0.4138E+00  0.3313E+01
   0.485  0.4112E+00  0.3318E+01
   0.495  0.4087E+00  0.3322E+01
   0.505  0.4063E+00  0.3326E+01
   0.515  0.4040E+00  0.3330E+01
   0.525  0.4018E+00  0.3334E+01
   0.535  0.3997E+00  0.3338E+01
   0.545  0.3977E+00  0.3342E+01
   0.555  0.3957E+00  0.3346E+01
   0.565  0.3938E+00  0.3350E+01
   0.575  0.3918E+00  0.3354E+01
   0.585  0.3899E+00  0.3358E+01
   0.595  0.3879E+00  0.3361E+01
   0.605  0.3860E+00  0.3365E+01
   0.615  0.3841E+00  0.3369E+01
   0.625  0.3822E+00  0.3373E+01
   0.635  0.3803E+00  0.3377E+01
   0.645  0.3785E+00  0.3381E+01
   0.655  0.3766E+00  0.3384E+01
   0.665  0.3748E+00  0.3388E+01
   0.675  0.3730E+00  0.3392E+01
   0.685  0.3712E+00  0.3396E+01
   0.695  0.3695E+00  0.3399E+01
   0.705  0.3677E+00  0.3403E+01
   0.715  0.3660E+00  0.3407E+01
   0.725  0.3642E+00  0.3410E+01
   0.735  0.3625E+00  0.3414E+01
   0.745  0.3608E+00  0.3418E+01
   0.755  0.3592E+00  0.3421E+01
   0.765  0.3575E+00  0.3425E+01
   0.775  0.3559E+00  0.3428E+01
   0.785  0.3542E+00  0.3432E+01
   0.795  0.3526E+00  0.3435E+01
   0.805  0.3509E+00  0.3439E+01
   0.815  0.3492E+00  0.3442E+01
   0.825  0.3475E+00  0.3446E+01
   0.835  0.3458E+00  0.3449E+01
   0.845  0.3440E+00  0.3453E+01
   0.855  0.3422E+00  0.3456E+01
   0.865  0.3404E+00  0.3460E+01
   0.875  0.3386E+00  0.3463E+01
   0.885  0.3368E+00  0.3466E+01
   0.895  0.3350E+00  0.3470E+01
   0.905  0.3335E+00  0.3473E+01
   0.915  0.3318E+00  0.3476E+01
   0.925  0.3292E+00  0.3480E+01
   0.935  0.3263E+00  0.3483E+01
   0.945  0.3237E+00  0.3486E+01
   0.955  0.3213E+00  0.3490E+01
   0.965  0.3190E+00  0.3493E+01
   0.975  0.3168E+00  0.3496E+01
   0.985  0.3146E+00  0.3499E+01
   0.995  0.3124E+00  0.3502E+01
   1.005  0.3102E+00  0.3505E+01
   1.015  0.3080E+00  0.3508E+01
   1.025  0.3059E+00  0.3511E+01
   1.035  0.3038E+00  0.3515E+01
   1.045  0.3017E+00  0.3518E+01
   1.055  0.2997E+00  0.3521E+01
   1.065  0.2977E+00  0.3524E+01
   1.075  0.2958E+00  0.3527E+01
   1.085  0.2939E+00  0.3529E+01
   1.095  0.2921E+00  0.3532E+01
   1.105  0.2903E+00  0.3535E+01
   1.115  0.2885E+00  0.3538E+01
   1.125  0.2868E+00  0.3541E+01
   1.135  0.2851E+00  0.3544E+01
   1.145  0.2834E+00  0.3547E+01
   1.155  0.2817E+00  0.3550E+01
   1.165  0.2801E+00  0.3552E+01
   1.175  0.2785E+00  0.3555E+01
   1.185  0.2769E+00  0.3558E+01
   1.195  0.2753E+00  0.3561E+01
   1.205  0.2738E+00  0.3563E+01
   1.215  0.2723E+00  0.3566E+01
   1.225  0.2708E+00  0.3569E+01
   1.235  0.2693E+00  0.3572E+01
   1.245  0.2678E+00  0.3574E+01
   1.255  0.2664E+00  0.3577E+01
   1.265  0.2650E+00  0.3580E+01
   1.275  0.2636E+00  0.3582E+01
   1.285  0.2622E+00  0.3585E+01
   1.295  0.2608E+00  0.3588E+01
   1.305  0.2595E+00  0.3590E+01
   1.315  0.2581E+00  0.3593E+01
   1.325  0.2568E+00  0.3595E+01
   1.335  0.2555E+00  0.3598E+01
   1.345  0.2542E+00  0.3600E+01
   1.355  0.2530E+00  0.3603E+01
   1.365  0.2518E+00  0.3605E+01
   1.375  0.2506E+00  0.3608E+01
   1.385  0.2494E+00  0.3610E+01
   1.395  0.2482E+00  0.3613E+01
   1.405  0.2470E+00  0.3615E+01
   1.415  0.2459E+00  0.3618E+01
   1.425  0.2447E+00  0.3620E+01
   1.435  0.2436E+00  0.3623E+01
   1.445  0.2424E+00  0.3625E+01
   1.455  0.2413E+00  0.3628E+01
   1.465  0.2402E+00  0.3630E+01
   1.475  0.2391E+00  0.3632E+01
   1.485  0.2380E+00  0.3635E+01
   1.495  0.2369E+00  0.3637E+01
   1.505  0.2359E+00  0.3640E+01
   1.515  0.2348E+00  0.3642E+01
   1.525  0.2338E+00  0.3644E+01
   1.535  0.2328E+00  0.3647E+01
   1.545  0.2317E+00  0.3649E+01
   1.555  0.2307E+00  0.3651E+01
   1.565  0.2297E+00  0.3654E+01
   1.575  0.2288E+00  0.3656E+01
   1.585  0.2278E+00  0.3658E+01
   1.595  0.2269E+00  0.3660E+01
   1.605  0.2259E+00  0.3663E+01
   1.615  0.2250E+00  0.3665E+01
   1.625  0.2241E+00  0.3667E+01
   1.635  0.2232E+00  0.3669E+01
   1.645  0.2227E+00  0.3672E+01
   1.655  0.2257E+00  0.3674E+01
   1.665  0.2342E+00  0.3676E+01
   1.675  0.2483E+00  0.3679E+01
   1.685  0.2680E+00  0.3681E+01
   1.695  0.2873E+00  0.3684E+01
   1.705  0.3108E+00  0.3687E+01
   1.715  0.3435E+00  0.3690E+01
   1.725  0.3813E+00  0.3694E+01
   1.735  0.4177E+00  0.3698E+01
   1.745  0.4524E+00  0.3702E+01
   1.755  0.4845E+00  0.3707E+01
   1.765  0.5159E+00  0.3712E+01
   1.775  0.5547E+00  0.3717E+01
   1.785  0.5932E+00  0.3723E+01
   1.795  0.6316E+00  0.3729E+01
   1.805  0.6700E+00  0.3736E+01
   1.815  0.7087E+00  0.3742E+01
   1.825  0.7475E+00  0.3750E+01
   1.835  0.8060E+00  0.3757E+01
   1.845  0.8651E+00  0.3766E+01
   1.855  0.9208E+00  0.3775E+01
   1.865  0.9730E+00  0.3784E+01
   1.875  0.1022E+01  0.3794E+01
   1.885  0.1074E+01  0.3805E+01
   1.895  0.1118E+01  0.3816E+01
   1.905  0.1153E+01  0.3827E+01
   1.915  0.1191E+01  0.3839E+01
   1.925  0.1250E+01  0.3851E+01
   1.935  0.1292E+01  0.3864E+01
   1.945  0.1317E+01  0.3877E+01
   1.955  0.1332E+01  0.3890E+01
   1.965  0.1338E+01  0.3903E+01
   1.975  0.1340E+01  0.3917E+01
   1.985  0.1341E+01  0.3930E+01
   1.995  0.1337E+01  0.3944E+01
   2.005  0.1329E+01  0.3957E+01
   2.015  0.1319E+01  0.3970E+01
   2.025  0.1308E+01  0.3983E+01
   2.035  0.1295E+01  0.3996E+01
   2.045  0.1279E+01  0.4009E+01
   2.055  0.1261E+01  0.4022E+01
   2.065  0.1243E+01  0.4034E+01
   2.075  0.1224E+01  0.4047E+01
   2.085  0.1201E+01  0.4059E+01
   2.095  0.1176E+01  0.4071E+01
   2.105  0.1158E+01  0.4082E+01
   2.115  0.1142E+01  0.4094E+01
   2.125  0.1135E+01  0.4105E+01
   2.135  0.1129E+01  0.4117E+01
   2.145  0.1123E+01  0.4128E+01
   2.155  0.1117E+01  0.4139E+01
   2.165  0.1111E+01  0.4150E+01
   2.175  0.1105E+01  0.4161E+01
   2.185  0.1099E+01  0.4172E+01
   2.195  0.1093E+01  0.4183E+01
   2.205  0.1086E+01  0.4194E+01
   2.215  0.1080E+01  0.4205E+01
   2.225  0.1073E+01  0.4216E+01
   2.235  0.1066E+01  0.4226E+01
   2.245  0.1060E+01  0.4237E+01
   2.255  0.1057E+01  0.4248E+01
   2.265  0.1056E+01  0.4258E+01
   2.275  0.1055E+01  0.4269E+01
   2.285  0.1052E+01  0.4279E+01
   2.295  0.1049E+01  0.4290E+01
   2.305  0.1046E+01  0.4300E+01
   2.315  0.1042E+01  0.4311E+01
   2.325  0.1038E+01  0.4321E+01
   2.335  0.1034E+01  0.4331E+01
   2.345  0.1029E+01  0.4342E+01
   2.355  0.1024E+01  0.4352E+01
   2.365  0.1019E+01  0.4362E+01
   2.375  0.1014E+01  0.4372E+01
   2.385  0.1009E+01  0.4383E+01
   2.395  0.1003E+01  0.4393E+01
   2.405  0.9974E+00  0.4403E+01
   2.415  0.9913E+00  0.4413E+01
   2.425  0.9892E+00  0.4422E+01
   2.435  0.9881E+00  0.4432E+01
   2.445  0.9874E+00  0.4442E+01
   2.455  0.9875E+00  0.4452E+01
   2.465  0.9883E+00  0.4462E+01
   2.475  0.9898E+00  0.4472E+01
   2.485  0.9922E+00  0.4482E+01
   2.495  0.9956E+00  0.4492E+01
   2.505  0.9997E+00  0.4502E+01
   2.515  0.1005E+01  0.4512E+01
   2.525  0.1009E+01  0.4522E+01
   2.535  0.1012E+01  0.4532E+01
   2.545  0.1016E+01  0.4542E+01
   2.555  0.1020E+01  0.4552E+01
   2.565  0.1024E+01  0.4562E+01
   2.575  0.1028E+01  0.4573E+01
   2.585  0.1033E+01  0.4583E+01
   2.595  0.1037E+01  0.4593E+01
   2.605  0.1042E+01  0.4604E+01
   2.615  0.1047E+01  0.4614E+01
   2.625  0.1052E+01  0.4625E+01
   2.635  0.1057E+01  0.4635E+01
   2.645  0.1061E+01  0.4646E+01
   2.655  0.1064E+01  0.4656E+01
   2.665  0.1067E+01  0.4667E+01
   2.675  0.1070E+01  0.4678E+01
   2.685  0.1073E+01  0.4688E+01
   2.695  0.1077E+01  0.4699E+01
   2.705  0.1080E+01  0.4710E+01
   2.715  0.1084E+01  0.4721E+01
   2.725  0.1086E+01  0.4732E+01
   2.735  0.1088E+01  0.4743E+01
   2.745  0.1093E+01  0.4753E+01
   2.755  0.1097E+01  0.4764E+01
   2.765  0.1102E+01  0.4775E+01
   2.775  0.1107E+01  0.4786E+01
   2.785  0.1111E+01  0.4798E+01
   2.795  0.1115E+01  0.4809E+01
   2.805  0.1121E+01  0.4820E+01
   2.815  0.1128E+01  0.4831E+01
   2.825  0.1135E+01  0.4842E+01
   2.835  0.1141E+01  0.4854E+01
   2.845  0.1164E+01  0.4865E+01
   2.855  0.1168E+01  0.4877E+01
   2.865  0.1172E+01  0.4889E+01
   2.875  0.1177E+01  0.4900E+01
   2.885  0.1183E+01  0.4912E+01
   2.895  0.1190E+01  0.4924E+01
   2.905  0.1196E+01  0.4936E+01
   2.915  0.1201E+01  0.4948E+01
   2.925  0.1207E+01  0.4960E+01
   2.935  0.1211E+01  0.4972E+01
   2.945  0.1216E+01  0.4984E+01
   2.955  0.1219E+01  0.4996E+01
   2.965  0.1221E+01  0.5009E+01
   2.975  0.1225E+01  0.5021E+01
   2.985  0.1231E+01  0.5033E+01
   2.995  0.1237E+01  0.5045E+01
   3.005  0.1243E+01  0.5058E+01
   3.015  0.1249E+01  0.5070E+01
   3.025  0.1255E+01  0.5083E+01
   3.035  0.1258E+01  0.5095E+01
   3.045  0.1263E+01  0.5108E+01
   3.055  0.1272E+01  0.5121E+01
   3.065  0.1286E+01  0.5134E+01
   3.075  0.1302E+01  0.5146E+01
   3.085  0.1316E+01  0.5160E+01
   3.095  0.1329E+01  0.5173E+01
   3.105  0.1341E+01  0.5186E+01
   3.115  0.1351E+01  0.5200E+01
   3.125  0.1360E+01  0.5213E+01
   3.135  0.1371E+01  0.5227E+01
   3.145  0.1435E+01  0.5241E+01
   3.155  0.1447E+01  0.5255E+01
   3.165  0.1461E+01  0.5270E+01
   3.175  0.1476E+01  0.5285E+01
   3.185  0.1493E+01  0.5299E+01
   3.195  0.1511E+01  0.5314E+01
   3.205  0.1548E+01  0.5330E+01
   3.215  0.1603E+01  0.5345E+01
   3.225  0.1648E+01  0.5362E+01
   3.235  0.1663E+01  0.5378E+01
   3.245  0.1668E+01  0.5395E+01
   3.255  0.1661E+01  0.5412E+01
   3.265  0.1651E+01  0.5428E+01
   3.275  0.1642E+01  0.5445E+01
   3.285  0.1630E+01  0.5461E+01
   3.295  0.1618E+01  0.5477E+01
   3.305  0.1608E+01  0.5493E+01
   3.315  0.1595E+01  0.5509E+01
   3.325  0.1576E+01  0.5525E+01
   3.335  0.1558E+01  0.5541E+01
   3.345  0.1550E+01  0.5556E+01
   3.355  0.1546E+01  0.5572E+01
   3.365  0.1543E+01  0.5587E+01
   3.375  0.1544E+01  0.5603E+01
   3.385  0.1549E+01  0.5618E+01
   3.395  0.1558E+01  0.5634E+01
   3.405  0.1563E+01  0.5649E+01
   3.415  0.1555E+01  0.5665E+01
   3.425  0.1548E+01  0.5681E+01
   3.435  0.1542E+01  0.5696E+01
   3.445  0.1525E+01  0.5711E+01
   3.455  0.1480E+01  0.5726E+01
   3.465  0.1474E+01  0.5741E+01
   3.475  0.1465E+01  0.5756E+01
   3.485  0.1455E+01  0.5770E+01
   3.495  0.1451E+01  0.5785E+01
   3.505  0.1447E+01  0.5799E+01
   3.515  0.1443E+01  0.5814E+01
   3.525  0.1440E+01  0.5828E+01
   3.535  0.1438E+01  0.5843E+01
   3.545  0.1437E+01  0.5857E+01
   3.555  0.1435E+01  0.5871E+01
   3.565  0.1434E+01  0.5886E+01
   3.575  0.1433E+01  0.5900E+01
   3.585  0.1431E+01  0.5914E+01
   3.595  0.1430E+01  0.5929E+01
   3.605  0.1429E+01  0.5943E+01
   3.615  0.1427E+01  0.5957E+01
   3.625  0.1426E+01  0.5972E+01
   3.635  0.1427E+01  0.5986E+01
   3.645  0.1475E+01  0.6001E+01
   3.655  0.1470E+01  0.6016E+01
   3.665  0.1463E+01  0.6031E+01
   3.675  0.1457E+01  0.6045E+01
   3.685  0.1452E+01  0.6060E+01
   3.695  0.1448E+01  0.6074E+01
   3.705  0.1445E+01  0.6089E+01
   3.715  0.1441E+01  0.6103E+01
   3.725  0.1438E+01  0.6118E+01
   3.735  0.1434E+01  0.6132E+01
   3.745  0.1430E+01  0.6146E+01
   3.755  0.1426E+01  0.6160E+01
   3.765  0.1423E+01  0.6175E+01
   3.775  0.1422E+01  0.6189E+01
   3.785  0.1420E+01  0.6203E+01
   3.795  0.1418E+01  0.6217E+01
   3.805  0.1418E+01  0.6232E+01
   3.815  0.1419E+01  0.6246E+01
   3.825  0.1421E+01  0.6260E+01
   3.835  0.1426E+01  0.6274E+01
   3.845  0.1419E+01  0.6288E+01
   3.855  0.1407E+01  0.6302E+01
   3.865  0.1398E+01  0.6317E+01
   3.875  0.1392E+01  0.6330E+01
   3.885  0.1388E+01  0.6344E+01
   3.895  0.1388E+01  0.6358E+01
   3.905  0.1385E+01  0.6372E+01
   3.915  0.1381E+01  0.6386E+01
   3.925  0.1377E+01  0.6400E+01
   3.935  0.1373E+01  0.6413E+01
   3.945  0.1370E+01  0.6427E+01
   3.955  0.1366E+01  0.6441E+01
   3.965  0.1362E+01  0.6455E+01
   3.975  0.1358E+01  0.6468E+01
   3.985  0.1355E+01  0.6482E+01
   3.995  0.1352E+01  0.6495E+01
   4.005  0.1349E+01  0.6509E+01
   4.015  0.1347E+01  0.6522E+01
   4.025  0.1345E+01  0.6536E+01
   4.035  0.1343E+01  0.6549E+01
   4.045  0.1342E+01  0.6563E+01
   4.055  0.1341E+01  0.6576E+01
   4.065  0.1341E+01  0.6589E+01
   4.075  0.1342E+01  0.6603E+01
   4.085  0.1334E+01  0.6616E+01
   4.095  0.1332E+01  0.6629E+01
   4.105  0.1329E+01  0.6643E+01
   4.115  0.1326E+01  0.6656E+01
   4.125  0.1324E+01  0.6669E+01
   4.135  0.1322E+01  0.6683E+01
   4.145  0.1321E+01  0.6696E+01
   4.155  0.1330E+01  0.6709E+01
   4.165  0.1343E+01  0.6722E+01
   4.175  0.1349E+01  0.6736E+01
   4.185  0.1349E+01  0.6749E+01
   4.195  0.1342E+01  0.6763E+01
   4.205  0.1330E+01  0.6776E+01
   4.215  0.1320E+01  0.6790E+01
   4.225  0.1314E+01  0.6803E+01
   4.235  0.1310E+01  0.6816E+01
   4.245  0.1306E+01  0.6829E+01
   4.255  0.1303E+01  0.6842E+01
   4.265  0.1300E+01  0.6855E+01
   4.275  0.1297E+01  0.6868E+01
   4.285  0.1294E+01  0.6881E+01
   4.295  0.1291E+01  0.6894E+01
   4.305  0.1287E+01  0.6907E+01
   4.315  0.1282E+01  0.6920E+01
   4.325  0.1277E+01  0.6933E+01
   4.335  0.1272E+01  0.6945E+01
   4.345  0.1267E+01  0.6958E+01
   4.355  0.1264E+01  0.6971E+01
   4.365  0.1279E+01  0.6983E+01
   4.375  0.1280E+01  0.6996E+01
   4.385  0.1280E+01  0.7009E+01
   4.395  0.1280E+01  0.7022E+01
   4.405  0.1280E+01  0.7035E+01
   4.415  0.1279E+01  0.7047E+01
   4.425  0.1277E+01  0.7060E+01
   4.435  0.1272E+01  0.7073E+01
   4.445  0.1267E+01  0.7086E+01
   4.455  0.1262E+01  0.7098E+01
   4.465  0.1257E+01  0.7111E+01
   4.475  0.1252E+01  0.7123E+01
   4.485  0.1247E+01  0.7136E+01
   4.495  0.1243E+01  0.7148E+01
   4.505  0.1238E+01  0.7161E+01
   4.515  0.1233E+01  0.7173E+01
   4.525  0.1228E+01  0.7185E+01
   4.535  0.1223E+01  0.7198E+01
   4.545  0.1219E+01  0.7210E+01
   4.555  0.1214E+01  0.7222E+01
   4.565  0.1210E+01  0.7234E+01
   4.575  0.1217E+01  0.7246E+01
   4.585  0.1242E+01  0.7259E+01
   4.595  0.1254E+01  0.7271E+01
   4.605  0.1249E+01  0.7284E+01
   4.615  0.1243E+01  0.7296E+01
   4.625  0.1236E+01  0.7308E+01
   4.635  0.1229E+01  0.7321E+01
   4.645  0.1218E+01  0.7333E+01
   4.655  0.1206E+01  0.7345E+01
   4.665  0.1195E+01  0.7357E+01
   4.675  0.1182E+01  0.7369E+01
   4.685  0.1170E+01  0.7381E+01
   4.695  0.1159E+01  0.7392E+01
   4.705  0.1148E+01  0.7404E+01
   4.715  0.1137E+01  0.7415E+01
   4.725  0.1134E+01  0.7427E+01
   4.735  0.1118E+01  0.7438E+01
   4.745  0.1101E+01  0.7449E+01
   4.755  0.1143E+01  0.7461E+01
   4.765  0.1118E+01  0.7472E+01
   4.775  0.1093E+01  0.7483E+01
   4.785  0.1070E+01  0.7494E+01
   4.795  0.1048E+01  0.7505E+01
   4.805  0.1025E+01  0.7515E+01
   4.815  0.1002E+01  0.7525E+01
   4.825  0.9834E+00  0.7535E+01
   4.835  0.9640E+00  0.7545E+01
   4.845  0.9407E+00  0.7554E+01
   4.855  0.9187E+00  0.7564E+01
   4.865  0.8982E+00  0.7573E+01
   4.875  0.8763E+00  0.7582E+01
   4.885  0.8501E+00  0.7590E+01
   4.895  0.8263E+00  0.7599E+01
   4.905  0.8160E+00  0.7607E+01
   4.915  0.8087E+00  0.7615E+01
   4.925  0.7943E+00  0.7623E+01
   4.935  0.7781E+00  0.7631E+01
   4.945  0.7610E+00  0.7639E+01
   4.955  0.7471E+00  0.7646E+01
   4.965  0.7344E+00  0.7653E+01
   4.975  0.7213E+00  0.7661E+01
   4.985  0.7084E+00  0.7668E+01
   4.995  0.6956E+00  0.7675E+01
   5.005  0.6831E+00  0.7682E+01
   5.015  0.6710E+00  0.7689E+01
   5.025  0.6592E+00  0.7695E+01
   5.035  0.6478E+00  0.7702E+01
   5.045  0.6366E+00  0.7708E+01
   5.055  0.6257E+00  0.7714E+01
   5.065  0.6151E+00  0.7721E+01
   5.075  0.6048E+00  0.7727E+01
   5.085  0.5951E+00  0.7733E+01
   5.095  0.5859E+00  0.7739E+01
   5.105  0.5767E+00  0.7745E+01
   5.115  0.5678E+00  0.7750E+01
   5.125  0.5590E+00  0.7756E+01
   5.135  0.5504E+00  0.7761E+01
   5.145  0.5420E+00  0.7767E+01
   5.155  0.5335E+00  0.7772E+01
   5.165  0.5242E+00  0.7778E+01
   5.175  0.5140E+00  0.7783E+01
   5.185  0.5028E+00  0.7788E+01
   5.195  0.4907E+00  0.7793E+01
   5.205  0.4836E+00  0.7798E+01
   5.215  0.4771E+00  0.7802E+01
   5.225  0.4744E+00  0.7807E+01
   5.235  0.4712E+00  0.7812E+01
   5.245  0.4682E+00  0.7817E+01
   5.255  0.4654E+00  0.7821E+01
   5.265  0.4627E+00  0.7826E+01
   5.275  0.4601E+00  0.7831E+01
   5.285  0.4575E+00  0.7835E+01
   5.295  0.4506E+00  0.7840E+01
   5.305  0.4436E+00  0.7844E+01
   5.315  0.4368E+00  0.7849E+01
   5.325  0.4301E+00  0.7853E+01
   5.335  0.4235E+00  0.7857E+01
   5.345  0.4167E+00  0.7861E+01
   5.355  0.4097E+00  0.7865E+01
   5.365  0.4059E+00  0.7870E+01
   5.375  0.3984E+00  0.7874E+01
   5.385  0.3911E+00  0.7878E+01
   5.395  0.3843E+00  0.7882E+01
   5.405  0.3780E+00  0.7886E+01
   5.415  0.3717E+00  0.7889E+01
   5.425  0.3654E+00  0.7893E+01
   5.435  0.3609E+00  0.7897E+01
   5.445  0.3561E+00  0.7900E+01
   5.455  0.3509E+00  0.7904E+01
   5.465  0.3452E+00  0.7907E+01
   5.475  0.3390E+00  0.7911E+01
   5.485  0.3323E+00  0.7914E+01
   5.495  0.3251E+00  0.7917E+01
   5.505  0.3174E+00  0.7921E+01
   5.515  0.3090E+00  0.7924E+01
   5.525  0.3003E+00  0.7927E+01
   5.535  0.2934E+00  0.7930E+01
   5.545  0.2851E+00  0.7933E+01
   5.555  0.2766E+00  0.7935E+01
   5.565  0.2680E+00  0.7938E+01
   5.575  0.2592E+00  0.7941E+01
   5.585  0.2520E+00  0.7943E+01
   5.595  0.2452E+00  0.7946E+01
   5.605  0.2387E+00  0.7948E+01
   5.615  0.2368E+00  0.7951E+01
   5.625  0.2417E+00  0.7953E+01
   5.635  0.2405E+00  0.7955E+01
   5.645  0.2331E+00  0.7958E+01
   5.655  0.2229E+00  0.7960E+01
   5.665  0.2161E+00  0.7962E+01
   5.675  0.2095E+00  0.7964E+01
   5.685  0.2031E+00  0.7966E+01
   5.695  0.1967E+00  0.7968E+01
   5.705  0.1904E+00  0.7970E+01
   5.715  0.1841E+00  0.7972E+01
   5.725  0.1779E+00  0.7974E+01
   5.735  0.1717E+00  0.7976E+01
   5.745  0.1655E+00  0.7977E+01
   5.755  0.1595E+00  0.7979E+01
   5.765  0.1535E+00  0.7981E+01
   5.775  0.1524E+00  0.7983E+01
   5.785  0.1442E+00  0.7984E+01
   5.795  0.1362E+00  0.7985E+01
   5.805  0.1285E+00  0.7987E+01
   5.815  0.1210E+00  0.7988E+01
   5.825  0.1137E+00  0.7989E+01
   5.835  0.1094E+00  0.7990E+01
   5.845  0.1056E+00  0.7991E+01
   5.855  0.1021E+00  0.7992E+01
   5.865  0.9894E-01  0.7993E+01
   5.875  0.9610E-01  0.7994E+01
   5.885  0.8664E-01  0.7996E+01
   5.895  0.7723E-01  0.7997E+01
   5.905  0.6822E-01  0.7997E+01
   5.915  0.5962E-01  0.7998E+01
   5.925  0.5142E-01  0.7998E+01
   5.935  0.4363E-01  0.7999E+01
   5.945  0.3624E-01  0.7999E+01
   5.955  0.2525E-01  0.8000E+01
   5.965  0.1517E-01  0.8000E+01
   5.975  0.7649E-02  0.8000E+01
   5.985  0.2676E-02  0.8000E+01
   5.995  0.2562E-03  0.8000E+01
   6.005  0.0000E+00  0.8000E+01
   6.015  0.0000E+00  0.8000E+01
   6.025  0.0000E+00  0.8000E+01
   6.035  0.0000E+00  0.8000E+01
   6.045  0.0000E+00  0.8000E+01
   6.055  0.0000E+00  0.8000E+01
   6.065  0.0000E+00  0.8000E+01
   6.075  0.0000E+00  0.8000E+01
   6.085  0.0000E+00  0.8000E+01
   6.095  0.0000E+00  0.8000E+01
   6.105  0.0000E+00  0.8000E+01
   6.115  0.0000E+00  0.8000E+01
   6.125  0.0000E+00  0.8000E+01
   6.135  0.0000E+00  0.8000E+01
   6.145  0.0000E+00  0.8000E+01
   6.155  0.0000E+00  0.8000E+01
   6.165  0.0000E+00  0.8000E+01
   6.175  0.0000E+00  0.8000E+01
   6.185  0.0000E+00  0.8000E+01
   6.195  0.0000E+00  0.8000E+01
   6.205  0.0000E+00  0.8000E+01
   6.215  0.0000E+00  0.8000E+01
   6.225  0.0000E+00  0.8000E+01
   6.235  0.0000E+00  0.8000E+01
   6.245  0.0000E+00  0.8000E+01
   6.255  0.0000E+00  0.8000E+01
   6.265  0.0000E+00  0.8000E+01
   6.275  0.0000E+00  0.8000E+01
   6.285  0.0000E+00  0.8000E+01
   6.295  0.0000E+00  0.8000E+01
   6.305  0.0000E+00  0.8000E+01
   6.315  0.0000E+00  0.8000E+01
   6.325  0.0000E+00  0.8000E+01
   6.335  0.0000E+00  0.8000E+01
   6.345  0.0000E+00  0.8000E+01
   6.355  0.0000E+00  0.8000E+01
   6.365  0.0000E+00  0.8000E+01
   6.375  0.0000E+00  0.8000E+01
   6.385  0.0000E+00  0.8000E+01
   6.395  0.0000E+00  0.8000E+01
   6.405  0.0000E+00  0.8000E+01
   6.415  0.0000E+00  0.8000E+01
   6.425  0.0000E+00  0.8000E+01
   6.435  0.0000E+00  0.8000E+01
   6.445  0.0000E+00  0.8000E+01
   6.455  0.0000E+00  0.8000E+01
   6.465  0.0000E+00  0.8000E+01
   6.475  0.0000E+00  0.8000E+01
   6.485  0.0000E+00  0.8000E+01
   6.495  0.0000E+00  0.8000E+01
   6.505  0.0000E+00  0.8000E+01
   6.515  0.0000E+00  0.8000E+01
   6.525  0.0000E+00  0.8000E+01
   6.535  0.0000E+00  0.8000E+01
   6.545  0.0000E+00  0.8000E+01
   6.555  0.0000E+00  0.8000E+01
   6.565  0.0000E+00  0.8000E+01
   6.575  0.0000E+00  0.8000E+01
   6.585  0.0000E+00  0.8000E+01
   6.595  0.0000E+00  0.8000E+01
   6.605  0.0000E+00  0.8000E+01
   6.615  0.0000E+00  0.8000E+01
   6.625  0.0000E+00  0.8000E+01
   6.635  0.0000E+00  0.8000E+01
   6.645  0.0000E+00  0.8000E+01
   6.655  0.4152E-02  0.8000E+01
   6.665  0.8923E-02  0.8000E+01
   6.675  0.1530E-01  0.8000E+01
   6.685  0.2355E-01  0.8000E+01
   6.695  0.3358E-01  0.8001E+01
   6.705  0.4396E-01  0.8001E+01
   6.715  0.5413E-01  0.8002E+01
   6.725  0.6408E-01  0.8002E+01
   6.735  0.7381E-01  0.8003E+01
   6.745  0.8333E-01  0.8004E+01
   6.755  0.9292E-01  0.8005E+01
   6.765  0.1028E+00  0.8005E+01
   6.775  0.1130E+00  0.8007E+01
   6.785  0.1234E+00  0.8008E+01
   6.795  0.1342E+00  0.8009E+01
   6.805  0.1452E+00  0.8010E+01
   6.815  0.1565E+00  0.8012E+01
   6.825  0.1681E+00  0.8014E+01
   6.835  0.1800E+00  0.8015E+01
   6.845  0.1920E+00  0.8017E+01
   6.855  0.2039E+00  0.8019E+01
   6.865  0.2159E+00  0.8021E+01
   6.875  0.2278E+00  0.8023E+01
   6.885  0.2397E+00  0.8026E+01
   6.895  0.2513E+00  0.8028E+01
   6.905  0.2627E+00  0.8031E+01
   6.915  0.2494E+00  0.8033E+01
   6.925  0.2503E+00  0.8036E+01
   6.935  0.2505E+00  0.8038E+01
   6.945  0.2500E+00  0.8041E+01
   6.955  0.2488E+00  0.8043E+01
   6.965  0.2549E+00  0.8046E+01
   6.975  0.2614E+00  0.8048E+01
   6.985  0.2681E+00  0.8051E+01
   6.995  0.2751E+00  0.8054E+01
   7.005  0.2825E+00  0.8057E+01
   7.015  0.2903E+00  0.8059E+01
   7.025  0.2985E+00  0.8062E+01
   7.035  0.3071E+00  0.8065E+01
   7.045  0.3161E+00  0.8069E+01
   7.055  0.3255E+00  0.8072E+01
   7.065  0.3321E+00  0.8075E+01
   7.075  0.3386E+00  0.8078E+01
   7.085  0.3452E+00  0.8082E+01
   7.095  0.3520E+00  0.8085E+01
   7.105  0.3586E+00  0.8089E+01
   7.115  0.3647E+00  0.8092E+01
   7.125  0.3704E+00  0.8096E+01
   7.135  0.3758E+00  0.8100E+01
   7.145  0.3809E+00  0.8104E+01
   7.155  0.3863E+00  0.8107E+01
   7.165  0.3914E+00  0.8111E+01
   7.175  0.3963E+00  0.8115E+01
   7.185  0.4010E+00  0.8119E+01
   7.195  0.4055E+00  0.8123E+01
   7.205  0.4098E+00  0.8127E+01
   7.215  0.4141E+00  0.8132E+01
   7.225  0.4207E+00  0.8136E+01
   7.235  0.4272E+00  0.8140E+01
   7.245  0.4338E+00  0.8144E+01
   7.255  0.4405E+00  0.8149E+01
   7.265  0.4473E+00  0.8153E+01
   7.275  0.4540E+00  0.8158E+01
   7.285  0.4608E+00  0.8162E+01
   7.295  0.4677E+00  0.8167E+01
   7.305  0.4555E+00  0.8171E+01
   7.315  0.4609E+00  0.8176E+01
   7.325  0.4662E+00  0.8181E+01
   7.335  0.4715E+00  0.8185E+01
   7.345  0.4768E+00  0.8190E+01
   7.355  0.4822E+00  0.8195E+01
   7.365  0.4882E+00  0.8200E+01
   7.375  0.4952E+00  0.8205E+01
   7.385  0.5029E+00  0.8210E+01
   7.395  0.5112E+00  0.8215E+01
   7.405  0.5202E+00  0.8220E+01
   7.415  0.5302E+00  0.8225E+01
   7.425  0.5419E+00  0.8230E+01
   7.435  0.5512E+00  0.8236E+01
   7.445  0.5624E+00  0.8241E+01
   7.455  0.5716E+00  0.8247E+01
   7.465  0.5771E+00  0.8253E+01
   7.475  0.5827E+00  0.8259E+01
   7.485  0.5881E+00  0.8264E+01
   7.495  0.5930E+00  0.8270E+01
   7.505  0.5979E+00  0.8276E+01
   7.515  0.6027E+00  0.8282E+01
   7.525  0.6075E+00  0.8288E+01
   7.535  0.6123E+00  0.8294E+01
   7.545  0.6171E+00  0.8301E+01
   7.555  0.6219E+00  0.8307E+01
   7.565  0.6267E+00  0.8313E+01
   7.575  0.6316E+00  0.8319E+01
   7.585  0.6365E+00  0.8326E+01
   7.595  0.6416E+00  0.8332E+01
   7.605  0.6467E+00  0.8339E+01
   7.615  0.6522E+00  0.8345E+01
   7.625  0.6580E+00  0.8352E+01
   7.635  0.6639E+00  0.8358E+01
   7.645  0.6700E+00  0.8365E+01
   7.655  0.6759E+00  0.8372E+01
   7.665  0.6806E+00  0.8378E+01
   7.675  0.6844E+00  0.8385E+01
   7.685  0.6895E+00  0.8392E+01
   7.695  0.6967E+00  0.8399E+01
   7.705  0.7049E+00  0.8406E+01
   7.715  0.7158E+00  0.8413E+01
   7.725  0.7292E+00  0.8420E+01
   7.735  0.7433E+00  0.8428E+01
   7.745  0.7549E+00  0.8435E+01
   7.755  0.7672E+00  0.8443E+01
   7.765  0.7803E+00  0.8451E+01
   7.775  0.7935E+00  0.8458E+01
   7.785  0.8073E+00  0.8466E+01
   7.795  0.8217E+00  0.8475E+01
   7.805  0.8366E+00  0.8483E+01
   7.815  0.8519E+00  0.8491E+01
   7.825  0.8675E+00  0.8500E+01
   7.835  0.8834E+00  0.8509E+01
   7.845  0.8996E+00  0.8518E+01
   7.855  0.9160E+00  0.8527E+01
   7.865  0.9326E+00  0.8536E+01
   7.875  0.9491E+00  0.8545E+01
   7.885  0.9656E+00  0.8555E+01
   7.895  0.9822E+00  0.8565E+01
   7.905  0.9989E+00  0.8574E+01
   7.915  0.1016E+01  0.8585E+01
   7.925  0.1033E+01  0.8595E+01
   7.935  0.1052E+01  0.8605E+01
   7.945  0.1071E+01  0.8616E+01
   7.955  0.1092E+01  0.8627E+01
   7.965  0.1122E+01  0.8638E+01
   7.975  0.1134E+01  0.8649E+01
   7.985  0.1154E+01  0.8660E+01
   7.995  0.1174E+01  0.8672E+01
   8.005  0.1194E+01  0.8684E+01
   8.015  0.1216E+01  0.8696E+01
   8.025  0.1238E+01  0.8708E+01
   8.035  0.1261E+01  0.8721E+01
   8.045  0.1289E+01  0.8734E+01
   8.055  0.1320E+01  0.8747E+01
   8.065  0.1350E+01  0.8760E+01
   8.075  0.1389E+01  0.8774E+01
   8.085  0.1424E+01  0.8788E+01
   8.095  0.1451E+01  0.8802E+01
   8.105  0.1476E+01  0.8817E+01
   8.115  0.1496E+01  0.8832E+01
   8.125  0.1517E+01  0.8847E+01
   8.135  0.1548E+01  0.8862E+01
   8.145  0.1579E+01  0.8878E+01
   8.155  0.1610E+01  0.8894E+01
   8.165  0.1643E+01  0.8910E+01
   8.175  0.1676E+01  0.8927E+01
   8.185  0.1710E+01  0.8944E+01
   8.195  0.1746E+01  0.8961E+01
   8.205  0.1787E+01  0.8979E+01
   8.215  0.1832E+01  0.8997E+01
   8.225  0.1877E+01  0.9015E+01
   8.235  0.1919E+01  0.9034E+01
   8.245  0.1957E+01  0.9054E+01
   8.255  0.1992E+01  0.9073E+01
   8.265  0.2030E+01  0.9093E+01
   8.275  0.2145E+01  0.9114E+01
   8.285  0.2095E+01  0.9136E+01
   8.295  0.2040E+01  0.9156E+01
   8.305  0.2000E+01  0.9177E+01
   8.315  0.1969E+01  0.9196E+01
   8.325  0.1947E+01  0.9216E+01
   8.335  0.1933E+01  0.9235E+01
   8.345  0.1925E+01  0.9255E+01
   8.355  0.1919E+01  0.9274E+01
   8.365  0.1913E+01  0.9293E+01
   8.375  0.1907E+01  0.9312E+01
   8.385  0.1902E+01  0.9331E+01
   8.395  0.1896E+01  0.9350E+01
   8.405  0.1890E+01  0.9369E+01
   8.415  0.1884E+01  0.9388E+01
   8.425  0.1877E+01  0.9407E+01
   8.435  0.1869E+01  0.9426E+01
   8.445  0.1863E+01  0.9444E+01
   8.455  0.1857E+01  0.9463E+01
   8.465  0.1851E+01  0.9481E+01
   8.475  0.1847E+01  0.9500E+01
   8.485  0.1841E+01  0.9518E+01
   8.495  0.1835E+01  0.9537E+01
   8.505  0.1824E+01  0.9555E+01
   8.515  0.2020E+01  0.9575E+01
   8.525  0.1993E+01  0.9595E+01
   8.535  0.1954E+01  0.9615E+01
   8.545  0.1880E+01  0.9634E+01
   8.555  0.1818E+01  0.9652E+01
   8.565  0.1776E+01  0.9670E+01
   8.575  0.1738E+01  0.9688E+01
   8.585  0.1702E+01  0.9705E+01
   8.595  0.1669E+01  0.9722E+01
   8.605  0.1636E+01  0.9738E+01
   8.615  0.1607E+01  0.9755E+01
   8.625  0.1581E+01  0.9771E+01
   8.635  0.1556E+01  0.9786E+01
   8.645  0.1527E+01  0.9802E+01
   8.655  0.1497E+01  0.9817E+01
   8.665  0.1467E+01  0.9832E+01
   8.675  0.1437E+01  0.9846E+01
   8.685  0.1408E+01  0.9860E+01
   8.695  0.1378E+01  0.9874E+01
   8.705  0.1353E+01  0.9888E+01
   8.715  0.1329E+01  0.9901E+01
   8.725  0.1306E+01  0.9915E+01
   8.735  0.1280E+01  0.9927E+01
   8.745  0.1251E+01  0.9940E+01
   8.755  0.1220E+01  0.9952E+01
   8.765  0.1189E+01  0.9965E+01
   8.775  0.1169E+01  0.9976E+01
   8.785  0.1148E+01  0.9988E+01
   8.795  0.1128E+01  0.9999E+01
   8.805  0.1109E+01  0.1001E+02
   8.815  0.1092E+01  0.1002E+02
   8.825  0.1074E+01  0.1003E+02
   8.835  0.1058E+01  0.1004E+02
   8.845  0.1041E+01  0.1005E+02
   8.855  0.1027E+01  0.1006E+02
   8.865  0.1012E+01  0.1007E+02
   8.875  0.9971E+00  0.1008E+02
   8.885  0.9817E+00  0.1009E+02
   8.895  0.9664E+00  0.1010E+02
   8.905  0.9529E+00  0.1011E+02
   8.915  0.9411E+00  0.1012E+02
   8.925  0.9257E+00  0.1013E+02
   8.935  0.9068E+00  0.1014E+02
   8.945  0.8844E+00  0.1015E+02
   8.955  0.8581E+00  0.1016E+02
   8.965  0.8351E+00  0.1017E+02
   8.975  0.8133E+00  0.1018E+02
   8.985  0.7945E+00  0.1018E+02
   8.995  0.7771E+00  0.1019E+02
   9.005  0.7624E+00  0.1020E+02
   9.015  0.7659E+00  0.1021E+02
   9.025  0.7606E+00  0.1022E+02
   9.035  0.7539E+00  0.1022E+02
   9.045  0.7492E+00  0.1023E+02
   9.055  0.7466E+00  0.1024E+02
   9.065  0.7460E+00  0.1025E+02
   9.075  0.7467E+00  0.1025E+02
   9.085  0.7487E+00  0.1026E+02
   9.095  0.7516E+00  0.1027E+02
   9.105  0.7544E+00  0.1028E+02
   9.115  0.7577E+00  0.1028E+02
   9.125  0.7618E+00  0.1029E+02
   9.135  0.7665E+00  0.1030E+02
   9.145  0.7718E+00  0.1031E+02
   9.155  0.7813E+00  0.1031E+02
   9.165  0.7873E+00  0.1032E+02
   9.175  0.8004E+00  0.1033E+02
   9.185  0.8144E+00  0.1034E+02
   9.195  0.8293E+00  0.1035E+02
   9.205  0.8445E+00  0.1035E+02
   9.215  0.8604E+00  0.1036E+02
   9.225  0.8774E+00  0.1037E+02
   9.235  0.8996E+00  0.1038E+02
   9.245  0.9261E+00  0.1039E+02
   9.255  0.9919E+00  0.1040E+02
   9.265  0.1076E+01  0.1041E+02
   9.275  0.1172E+01  0.1042E+02
   9.285  0.1345E+01  0.1043E+02
   9.295  0.1459E+01  0.1045E+02
   9.305  0.1578E+01  0.1046E+02
   9.315  0.1721E+01  0.1048E+02
   9.325  0.1833E+01  0.1050E+02
   9.335  0.1950E+01  0.1052E+02
   9.345  0.2063E+01  0.1054E+02
   9.355  0.2134E+01  0.1056E+02
   9.365  0.2152E+01  0.1058E+02
   9.375  0.2179E+01  0.1060E+02
   9.385  0.2187E+01  0.1062E+02
   9.395  0.2167E+01  0.1064E+02
   9.405  0.2231E+01  0.1067E+02
   9.415  0.2262E+01  0.1069E+02
   9.425  0.2227E+01  0.1071E+02
   9.435  0.2170E+01  0.1073E+02
   9.445  0.2104E+01  0.1075E+02
   9.455  0.2050E+01  0.1077E+02
   9.465  0.2031E+01  0.1080E+02
   9.475  0.2028E+01  0.1082E+02
   9.485  0.2060E+01  0.1084E+02
   9.495  0.2025E+01  0.1086E+02
   9.505  0.2000E+01  0.1088E+02
   9.515  0.1996E+01  0.1090E+02
   9.525  0.1991E+01  0.1092E+02
   9.535  0.1984E+01  0.1094E+02
   9.545  0.1975E+01  0.1096E+02
   9.555  0.1976E+01  0.1098E+02
   9.565  0.1957E+01  0.1100E+02
   9.575  0.1941E+01  0.1101E+02
   9.585  0.1941E+01  0.1103E+02
   9.595  0.1940E+01  0.1105E+02
   9.605  0.1943E+01  0.1107E+02
   9.615  0.1948E+01  0.1109E+02
   9.625  0.1957E+01  0.1111E+02
   9.635  0.1966E+01  0.1113E+02
   9.645  0.1973E+01  0.1115E+02
   9.655  0.1953E+01  0.1117E+02
   9.665  0.1945E+01  0.1119E+02
   9.675  0.1941E+01  0.1121E+02
   9.685  0.1935E+01  0.1123E+02
   9.695  0.1929E+01  0.1125E+02
   9.705  0.1925E+01  0.1127E+02
   9.715  0.1917E+01  0.1129E+02
   9.725  0.1902E+01  0.1131E+02
   9.735  0.1891E+01  0.1133E+02
   9.745  0.1881E+01  0.1134E+02
   9.755  0.1870E+01  0.1136E+02
   9.765  0.1860E+01  0.1138E+02
   9.775  0.1856E+01  0.1140E+02
   9.785  0.1852E+01  0.1142E+02
   9.795  0.1846E+01  0.1144E+02
   9.805  0.1839E+01  0.1146E+02
   9.815  0.1831E+01  0.1147E+02
   9.825  0.1818E+01  0.1149E+02
   9.835  0.1803E+01  0.1151E+02
   9.845  0.1787E+01  0.1153E+02
   9.855  0.1768E+01  0.1155E+02
   9.865  0.1753E+01  0.1156E+02
   9.875  0.1737E+01  0.1158E+02
   9.885  0.1721E+01  0.1160E+02
   9.895  0.1705E+01  0.1162E+02
   9.905  0.1643E+01  0.1163E+02
   9.915  0.1553E+01  0.1165E+02
   9.925  0.1535E+01  0.1166E+02
   9.935  0.1523E+01  0.1168E+02
   9.945  0.1514E+01  0.1169E+02
   9.955  0.1505E+01  0.1171E+02
   9.965  0.1504E+01  0.1172E+02
   9.975  0.1524E+01  0.1174E+02
   9.985  0.1540E+01  0.1176E+02
   9.995  0.1511E+01  0.1177E+02
  10.005  0.1491E+01  0.1179E+02
  10.015  0.1479E+01  0.1180E+02
  10.025  0.1467E+01  0.1182E+02
  10.035  0.1456E+01  0.1183E+02
  10.045  0.1444E+01  0.1184E+02
  10.055  0.1432E+01  0.1186E+02
  10.065  0.1419E+01  0.1187E+02
  10.075  0.1404E+01  0.1189E+02
  10.085  0.1390E+01  0.1190E+02
  10.095  0.1378E+01  0.1191E+02
  10.105  0.1367E+01  0.1193E+02
  10.115  0.1356E+01  0.1194E+02
  10.125  0.1347E+01  0.1196E+02
  10.135  0.1338E+01  0.1197E+02
  10.145  0.1330E+01  0.1198E+02
  10.155  0.1324E+01  0.1200E+02
  10.165  0.1318E+01  0.1201E+02
  10.175  0.1314E+01  0.1202E+02
  10.185  0.1311E+01  0.1204E+02
  10.195  0.1307E+01  0.1205E+02
  10.205  0.1305E+01  0.1206E+02
  10.215  0.1299E+01  0.1207E+02
  10.225  0.1292E+01  0.1209E+02
  10.235  0.1285E+01  0.1210E+02
  10.245  0.1280E+01  0.1211E+02
  10.255  0.1273E+01  0.1213E+02
  10.265  0.1262E+01  0.1214E+02
  10.275  0.1247E+01  0.1215E+02
  10.285  0.1234E+01  0.1216E+02
  10.295  0.1227E+01  0.1218E+02
  10.305  0.1225E+01  0.1219E+02
  10.315  0.1209E+01  0.1220E+02
  10.325  0.1206E+01  0.1221E+02
  10.335  0.1199E+01  0.1222E+02
  10.345  0.1193E+01  0.1224E+02
  10.355  0.1193E+01  0.1225E+02
  10.365  0.1195E+01  0.1226E+02
  10.375  0.1198E+01  0.1227E+02
  10.385  0.1200E+01  0.1228E+02
  10.395  0.1202E+01  0.1230E+02
  10.405  0.1202E+01  0.1231E+02
  10.415  0.1200E+01  0.1232E+02
  10.425  0.1198E+01  0.1233E+02
  10.435  0.1196E+01  0.1234E+02
  10.445  0.1194E+01  0.1236E+02
  10.455  0.1191E+01  0.1237E+02
  10.465  0.1188E+01  0.1238E+02
  10.475  0.1185E+01  0.1239E+02
  10.485  0.1180E+01  0.1240E+02
  10.495  0.1175E+01  0.1242E+02
  10.505  0.1170E+01  0.1243E+02
  10.515  0.1164E+01  0.1244E+02
  10.525  0.1158E+01  0.1245E+02
  10.535  0.1151E+01  0.1246E+02
  10.545  0.1145E+01  0.1247E+02
  10.555  0.1139E+01  0.1248E+02
  10.565  0.1134E+01  0.1250E+02
  10.575  0.1124E+01  0.1251E+02
  10.585  0.1119E+01  0.1252E+02
  10.595  0.1119E+01  0.1253E+02
  10.605  0.1116E+01  0.1254E+02
  10.615  0.1111E+01  0.1255E+02
  10.625  0.1107E+01  0.1256E+02
  10.635  0.1109E+01  0.1257E+02
  10.645  0.1108E+01  0.1259E+02
  10.655  0.1105E+01  0.1260E+02
  10.665  0.1100E+01  0.1261E+02
  10.675  0.1092E+01  0.1262E+02
  10.685  0.1082E+01  0.1263E+02
  10.695  0.1073E+01  0.1264E+02
  10.705  0.1065E+01  0.1265E+02
  10.715  0.1062E+01  0.1266E+02
  10.725  0.1072E+01  0.1267E+02
  10.735  0.1079E+01  0.1268E+02
  10.745  0.1083E+01  0.1269E+02
  10.755  0.1084E+01  0.1270E+02
  10.765  0.1082E+01  0.1272E+02
  10.775  0.1082E+01  0.1273E+02
  10.785  0.1084E+01  0.1274E+02
  10.795  0.1087E+01  0.1275E+02
  10.805  0.1090E+01  0.1276E+02
  10.815  0.1093E+01  0.1277E+02
  10.825  0.1095E+01  0.1278E+02
  10.835  0.1098E+01  0.1279E+02
  10.845  0.1102E+01  0.1280E+02
  10.855  0.1107E+01  0.1281E+02
  10.865  0.1112E+01  0.1282E+02
  10.875  0.1116E+01  0.1284E+02
  10.885  0.1121E+01  0.1285E+02
  10.895  0.1125E+01  0.1286E+02
  10.905  0.1130E+01  0.1287E+02
  10.915  0.1134E+01  0.1288E+02
  10.925  0.1138E+01  0.1289E+02
  10.935  0.1150E+01  0.1290E+02
  10.945  0.1168E+01  0.1292E+02
  10.955  0.1195E+01  0.1293E+02
  10.965  0.1229E+01  0.1294E+02
  10.975  0.1179E+01  0.1295E+02
  10.985  0.1181E+01  0.1296E+02
  10.995  0.1184E+01  0.1297E+02
  11.005  0.1186E+01  0.1299E+02
  11.015  0.1190E+01  0.1300E+02
  11.025  0.1195E+01  0.1301E+02
  11.035  0.1200E+01  0.1302E+02
  11.045  0.1204E+01  0.1303E+02
  11.055  0.1208E+01  0.1305E+02
  11.065  0.1213E+01  0.1306E+02
  11.075  0.1217E+01  0.1307E+02
  11.085  0.1222E+01  0.1308E+02
  11.095  0.1226E+01  0.1310E+02
  11.105  0.1229E+01  0.1311E+02
  11.115  0.1232E+01  0.1312E+02
  11.125  0.1234E+01  0.1313E+02
  11.135  0.1236E+01  0.1314E+02
  11.145  0.1236E+01  0.1316E+02
  11.155  0.1234E+01  0.1317E+02
  11.165  0.1229E+01  0.1318E+02
  11.175  0.1230E+01  0.1319E+02
  11.185  0.1231E+01  0.1321E+02
  11.195  0.1234E+01  0.1322E+02
  11.205  0.1244E+01  0.1323E+02
  11.215  0.1252E+01  0.1324E+02
  11.225  0.1257E+01  0.1326E+02
  11.235  0.1258E+01  0.1327E+02
  11.245  0.1251E+01  0.1328E+02
  11.255  0.1218E+01  0.1329E+02
  11.265  0.1210E+01  0.1331E+02
  11.275  0.1213E+01  0.1332E+02
  11.285  0.1219E+01  0.1333E+02
  11.295  0.1223E+01  0.1334E+02
  11.305  0.1232E+01  0.1335E+02
  11.315  0.1245E+01  0.1337E+02
  11.325  0.1266E+01  0.1338E+02
  11.335  0.1276E+01  0.1339E+02
  11.345  0.1254E+01  0.1340E+02
  11.355  0.1235E+01  0.1342E+02
  11.365  0.1226E+01  0.1343E+02
  11.375  0.1226E+01  0.1344E+02
  11.385  0.1227E+01  0.1345E+02
  11.395  0.1228E+01  0.1347E+02
  11.405  0.1230E+01  0.1348E+02
  11.415  0.1231E+01  0.1349E+02
  11.425  0.1233E+01  0.1350E+02
  11.435  0.1235E+01  0.1352E+02
  11.445  0.1237E+01  0.1353E+02
  11.455  0.1239E+01  0.1354E+02
  11.465  0.1229E+01  0.1355E+02
  11.475  0.1230E+01  0.1356E+02
  11.485  0.1231E+01  0.1358E+02
  11.495  0.1233E+01  0.1359E+02
  11.505  0.1232E+01  0.1360E+02
  11.515  0.1230E+01  0.1361E+02
  11.525  0.1227E+01  0.1363E+02
  11.535  0.1223E+01  0.1364E+02
  11.545  0.1219E+01  0.1365E+02
  11.555  0.1214E+01  0.1366E+02
  11.565  0.1210E+01  0.1367E+02
  11.575  0.1205E+01  0.1369E+02
  11.585  0.1199E+01  0.1370E+02
  11.595  0.1193E+01  0.1371E+02
  11.605  0.1185E+01  0.1372E+02
  11.615  0.1176E+01  0.1373E+02
  11.625  0.1168E+01  0.1375E+02
  11.635  0.1160E+01  0.1376E+02
  11.645  0.1151E+01  0.1377E+02
  11.655  0.1143E+01  0.1378E+02
  11.665  0.1135E+01  0.1379E+02
  11.675  0.1128E+01  0.1380E+02
  11.685  0.1122E+01  0.1381E+02
  11.695  0.1115E+01  0.1383E+02
  11.705  0.1109E+01  0.1384E+02
  11.715  0.1103E+01  0.1385E+02
  11.725  0.1097E+01  0.1386E+02
  11.735  0.1091E+01  0.1387E+02
  11.745  0.1085E+01  0.1388E+02
  11.755  0.1079E+01  0.1389E+02
  11.765  0.1074E+01  0.1390E+02
  11.775  0.1069E+01  0.1391E+02
  11.785  0.1064E+01  0.1392E+02
  11.795  0.1059E+01  0.1393E+02
  11.805  0.1054E+01  0.1395E+02
  11.815  0.1049E+01  0.1396E+02
  11.825  0.1044E+01  0.1397E+02
  11.835  0.1039E+01  0.1398E+02
  11.845  0.1034E+01  0.1399E+02
  11.855  0.1030E+01  0.1400E+02
  11.865  0.1027E+01  0.1401E+02
  11.875  0.1024E+01  0.1402E+02
  11.885  0.1020E+01  0.1403E+02
  11.895  0.1017E+01  0.1404E+02
  11.905  0.1013E+01  0.1405E+02
  11.915  0.1010E+01  0.1406E+02
  11.925  0.1006E+01  0.1407E+02
  11.935  0.1002E+01  0.1408E+02
  11.945  0.9980E+00  0.1409E+02
  11.955  0.9942E+00  0.1410E+02
  11.965  0.9963E+00  0.1411E+02
  11.975  0.1002E+01  0.1412E+02
  11.985  0.1002E+01  0.1413E+02
  11.995  0.9945E+00  0.1414E+02
  12.005  0.9861E+00  0.1415E+02
  12.015  0.9821E+00  0.1416E+02
  12.025  0.9861E+00  0.1417E+02
  12.035  0.9929E+00  0.1418E+02
  12.045  0.1010E+01  0.1419E+02
  12.055  0.1024E+01  0.1420E+02
  12.065  0.1024E+01  0.1421E+02
  12.075  0.1011E+01  0.1422E+02
  12.085  0.9841E+00  0.1423E+02
  12.095  0.9770E+00  0.1424E+02
  12.105  0.9729E+00  0.1425E+02
  12.115  0.9682E+00  0.1426E+02
  12.125  0.9644E+00  0.1427E+02
  12.135  0.9620E+00  0.1428E+02
  12.145  0.9592E+00  0.1429E+02
  12.155  0.9562E+00  0.1430E+02
  12.165  0.9531E+00  0.1431E+02
  12.175  0.9498E+00  0.1432E+02
  12.185  0.9465E+00  0.1432E+02
  12.195  0.9437E+00  0.1433E+02
  12.205  0.9419E+00  0.1434E+02
  12.215  0.9411E+00  0.1435E+02
  12.225  0.9413E+00  0.1436E+02
  12.235  0.9420E+00  0.1437E+02
  12.245  0.9429E+00  0.1438E+02
  12.255  0.9438E+00  0.1439E+02
  12.265  0.9448E+00  0.1440E+02
  12.275  0.9460E+00  0.1441E+02
  12.285  0.9501E+00  0.1442E+02
  12.295  0.9619E+00  0.1443E+02
  12.305  0.9640E+00  0.1444E+02
  12.315  0.9561E+00  0.1445E+02
  12.325  0.9543E+00  0.1446E+02
  12.335  0.9589E+00  0.1447E+02
  12.345  0.9663E+00  0.1448E+02
  12.355  0.9736E+00  0.1449E+02
  12.365  0.9808E+00  0.1450E+02
  12.375  0.9879E+00  0.1451E+02
  12.385  0.9950E+00  0.1452E+02
  12.395  0.1002E+01  0.1453E+02
  12.405  0.1009E+01  0.1454E+02
  12.415  0.1016E+01  0.1455E+02
  12.425  0.1025E+01  0.1456E+02
  12.435  0.1033E+01  0.1457E+02
  12.445  0.1040E+01  0.1458E+02
  12.455  0.1048E+01  0.1459E+02
  12.465  0.1055E+01  0.1460E+02
  12.475  0.1061E+01  0.1461E+02
  12.485  0.1067E+01  0.1462E+02
  12.495  0.1072E+01  0.1463E+02
  12.505  0.1077E+01  0.1464E+02
  12.515  0.1081E+01  0.1465E+02
  12.525  0.1085E+01  0.1466E+02
  12.535  0.1089E+01  0.1467E+02
  12.545  0.1094E+01  0.1468E+02
  12.555  0.1100E+01  0.1469E+02
  12.565  0.1107E+01  0.1471E+02
  12.575  0.1114E+01  0.1472E+02
  12.585  0.1122E+01  0.1473E+02
  12.595  0.1130E+01  0.1474E+02
  12.605  0.1138E+01  0.1475E+02
  12.615  0.1149E+01  0.1476E+02
  12.625  0.1159E+01  0.1477E+02
  12.635  0.1169E+01  0.1479E+02
  12.645  0.1179E+01  0.1480E+02
  12.655  0.1187E+01  0.1481E+02
  12.665  0.1194E+01  0.1482E+02
  12.675  0.1200E+01  0.1483E+02
  12.685  0.1209E+01  0.1484E+02
  12.695  0.1215E+01  0.1486E+02
  12.705  0.1216E+01  0.1487E+02
  12.715  0.1214E+01  0.1488E+02
  12.725  0.1207E+01  0.1489E+02
  12.735  0.1197E+01  0.1491E+02
  12.745  0.1183E+01  0.1492E+02
  12.755  0.1166E+01  0.1493E+02
  12.765  0.1147E+01  0.1494E+02
  12.775  0.1127E+01  0.1495E+02
  12.785  0.1104E+01  0.1496E+02
  12.795  0.1089E+01  0.1497E+02
  12.805  0.1077E+01  0.1499E+02
  12.815  0.1069E+01  0.1500E+02
  12.825  0.1063E+01  0.1501E+02
  12.835  0.1063E+01  0.1502E+02
  12.845  0.1066E+01  0.1503E+02
  12.855  0.1061E+01  0.1504E+02
  12.865  0.1044E+01  0.1505E+02
  12.875  0.1028E+01  0.1506E+02
  12.885  0.1013E+01  0.1507E+02
  12.895  0.9992E+00  0.1508E+02
  12.905  0.9869E+00  0.1509E+02
  12.915  0.9760E+00  0.1510E+02
  12.925  0.9666E+00  0.1511E+02
  12.935  0.9587E+00  0.1512E+02
  12.945  0.9513E+00  0.1513E+02
  12.955  0.9443E+00  0.1514E+02
  12.965  0.9377E+00  0.1515E+02
  12.975  0.9314E+00  0.1516E+02
  12.985  0.9254E+00  0.1517E+02
  12.995  0.9197E+00  0.1517E+02
  13.005  0.9143E+00  0.1518E+02
  13.015  0.9094E+00  0.1519E+02
  13.025  0.9047E+00  0.1520E+02
  13.035  0.9015E+00  0.1521E+02
  13.045  0.9006E+00  0.1522E+02
  13.055  0.8990E+00  0.1523E+02
  13.065  0.8967E+00  0.1524E+02
  13.075  0.8937E+00  0.1525E+02
  13.085  0.8900E+00  0.1526E+02
  13.095  0.8856E+00  0.1526E+02
  13.105  0.8805E+00  0.1527E+02
  13.115  0.8746E+00  0.1528E+02
  13.125  0.8681E+00  0.1529E+02
  13.135  0.8609E+00  0.1530E+02
  13.145  0.8530E+00  0.1531E+02
  13.155  0.8444E+00  0.1532E+02
  13.165  0.8352E+00  0.1533E+02
  13.175  0.8250E+00  0.1533E+02
  13.185  0.8142E+00  0.1534E+02
  13.195  0.8034E+00  0.1535E+02
  13.205  0.7927E+00  0.1536E+02
  13.215  0.7822E+00  0.1537E+02
  13.225  0.7716E+00  0.1537E+02
  13.235  0.7608E+00  0.1538E+02
  13.245  0.7504E+00  0.1539E+02
  13.255  0.7404E+00  0.1540E+02
  13.265  0.7308E+00  0.1540E+02
  13.275  0.7215E+00  0.1541E+02
  13.285  0.7127E+00  0.1542E+02
  13.295  0.7043E+00  0.1543E+02
  13.305  0.6962E+00  0.1543E+02
  13.315  0.6886E+00  0.1544E+02
  13.325  0.6814E+00  0.1545E+02
  13.335  0.6745E+00  0.1545E+02
  13.345  0.6681E+00  0.1546E+02
  13.355  0.6625E+00  0.1547E+02
  13.365  0.6568E+00  0.1547E+02
  13.375  0.6512E+00  0.1548E+02
  13.385  0.6456E+00  0.1549E+02
  13.395  0.6402E+00  0.1549E+02
  13.405  0.6348E+00  0.1550E+02
  13.415  0.6295E+00  0.1550E+02
  13.425  0.6244E+00  0.1551E+02
  13.435  0.6220E+00  0.1552E+02
  13.445  0.6199E+00  0.1552E+02
  13.455  0.6181E+00  0.1553E+02
  13.465  0.6164E+00  0.1554E+02
  13.475  0.6152E+00  0.1554E+02
  13.485  0.6143E+00  0.1555E+02
  13.495  0.6135E+00  0.1555E+02
  13.505  0.6130E+00  0.1556E+02
  13.515  0.6084E+00  0.1557E+02
  13.525  0.6036E+00  0.1557E+02
  13.535  0.5989E+00  0.1558E+02
  13.545  0.5938E+00  0.1558E+02
  13.555  0.5880E+00  0.1559E+02
  13.565  0.5821E+00  0.1560E+02
  13.575  0.5761E+00  0.1560E+02
  13.585  0.5702E+00  0.1561E+02
  13.595  0.5642E+00  0.1561E+02
  13.605  0.5582E+00  0.1562E+02
  13.615  0.5522E+00  0.1562E+02
  13.625  0.5461E+00  0.1563E+02
  13.635  0.5402E+00  0.1564E+02
  13.645  0.5346E+00  0.1564E+02
  13.655  0.5352E+00  0.1565E+02
  13.665  0.5318E+00  0.1565E+02
  13.675  0.5280E+00  0.1566E+02
  13.685  0.5240E+00  0.1566E+02
  13.695  0.5198E+00  0.1567E+02
  13.705  0.5172E+00  0.1567E+02
  13.715  0.5176E+00  0.1568E+02
  13.725  0.5211E+00  0.1568E+02
  13.735  0.5243E+00  0.1569E+02
  13.745  0.5200E+00  0.1569E+02
  13.755  0.5152E+00  0.1570E+02
  13.765  0.5092E+00  0.1570E+02
  13.775  0.4943E+00  0.1571E+02
  13.785  0.4888E+00  0.1571E+02
  13.795  0.4831E+00  0.1572E+02
  13.805  0.4773E+00  0.1572E+02
  13.815  0.4712E+00  0.1573E+02
  13.825  0.4177E+00  0.1573E+02
  13.835  0.4085E+00  0.1574E+02
  13.845  0.3996E+00  0.1574E+02
  13.855  0.3908E+00  0.1574E+02
  13.865  0.3822E+00  0.1575E+02
  13.875  0.3737E+00  0.1575E+02
  13.885  0.3653E+00  0.1576E+02
  13.895  0.3571E+00  0.1576E+02
  13.905  0.3489E+00  0.1576E+02
  13.915  0.3408E+00  0.1577E+02
  13.925  0.3329E+00  0.1577E+02
  13.935  0.3130E+00  0.1577E+02
  13.945  0.3059E+00  0.1578E+02
  13.955  0.3000E+00  0.1578E+02
  13.965  0.2953E+00  0.1578E+02
  13.975  0.2916E+00  0.1579E+02
  13.985  0.2886E+00  0.1579E+02
  13.995  0.2860E+00  0.1579E+02
  14.005  0.2834E+00  0.1579E+02
  14.015  0.2809E+00  0.1580E+02
  14.025  0.2785E+00  0.1580E+02
  14.035  0.2762E+00  0.1580E+02
  14.045  0.2740E+00  0.1581E+02
  14.055  0.2718E+00  0.1581E+02
  14.065  0.2697E+00  0.1581E+02
  14.075  0.2677E+00  0.1581E+02
  14.085  0.2658E+00  0.1582E+02
  14.095  0.2640E+00  0.1582E+02
  14.105  0.2622E+00  0.1582E+02
  14.115  0.2605E+00  0.1582E+02
  14.125  0.2589E+00  0.1583E+02
  14.135  0.2575E+00  0.1583E+02
  14.145  0.2564E+00  0.1583E+02
  14.155  0.2560E+00  0.1583E+02
  14.165  0.2561E+00  0.1584E+02
  14.175  0.2567E+00  0.1584E+02
  14.185  0.2578E+00  0.1584E+02
  14.195  0.2594E+00  0.1584E+02
  14.205  0.2614E+00  0.1585E+02
  14.215  0.2640E+00  0.1585E+02
  14.225  0.2670E+00  0.1585E+02
  14.235  0.2704E+00  0.1586E+02
  14.245  0.2674E+00  0.1586E+02
  14.255  0.2702E+00  0.1586E+02
  14.265  0.2744E+00  0.1586E+02
  14.275  0.2344E+00  0.1587E+02
  14.285  0.2216E+00  0.1587E+02
  14.295  0.2141E+00  0.1587E+02
  14.305  0.2084E+00  0.1587E+02
  14.315  0.2030E+00  0.1587E+02
  14.325  0.1979E+00  0.1588E+02
  14.335  0.1931E+00  0.1588E+02
  14.345  0.1887E+00  0.1588E+02
  14.355  0.1846E+00  0.1588E+02
  14.365  0.1808E+00  0.1588E+02
  14.375  0.1773E+00  0.1589E+02
  14.385  0.1741E+00  0.1589E+02
  14.395  0.1713E+00  0.1589E+02
  14.405  0.1687E+00  0.1589E+02
  14.415  0.1665E+00  0.1589E+02
  14.425  0.1644E+00  0.1589E+02
  14.435  0.1624E+00  0.1590E+02
  14.445  0.1604E+00  0.1590E+02
  14.455  0.1584E+00  0.1590E+02
  14.465  0.1564E+00  0.1590E+02
  14.475  0.1545E+00  0.1590E+02
  14.485  0.1527E+00  0.1590E+02
  14.495  0.1508E+00  0.1591E+02
  14.505  0.1490E+00  0.1591E+02
  14.515  0.1472E+00  0.1591E+02
  14.525  0.1455E+00  0.1591E+02
  14.535  0.1438E+00  0.1591E+02
  14.545  0.1421E+00  0.1591E+02
  14.555  0.1404E+00  0.1591E+02
  14.565  0.1388E+00  0.1592E+02
  14.575  0.1373E+00  0.1592E+02
  14.585  0.1357E+00  0.1592E+02
  14.595  0.1342E+00  0.1592E+02
  14.605  0.1328E+00  0.1592E+02
  14.615  0.1313E+00  0.1592E+02
  14.625  0.1299E+00  0.1592E+02
  14.635  0.1285E+00  0.1592E+02
  14.645  0.1272E+00  0.1593E+02
  14.655  0.1259E+00  0.1593E+02
  14.665  0.1246E+00  0.1593E+02
  14.675  0.1234E+00  0.1593E+02
  14.685  0.1222E+00  0.1593E+02
  14.695  0.1210E+00  0.1593E+02
  14.705  0.1199E+00  0.1593E+02
  14.715  0.1189E+00  0.1593E+02
  14.725  0.1180E+00  0.1594E+02
  14.735  0.1172E+00  0.1594E+02
  14.745  0.1163E+00  0.1594E+02
  14.755  0.1155E+00  0.1594E+02
  14.765  0.1147E+00  0.1594E+02
  14.775  0.1138E+00  0.1594E+02
  14.785  0.1130E+00  0.1594E+02
  14.795  0.1121E+00  0.1594E+02
  14.805  0.1112E+00  0.1595E+02
  14.815  0.1104E+00  0.1595E+02
  14.825  0.1095E+00  0.1595E+02
  14.835  0.1086E+00  0.1595E+02
  14.845  0.1077E+00  0.1595E+02
  14.855  0.1068E+00  0.1595E+02
  14.865  0.1059E+00  0.1595E+02
  14.875  0.1050E+00  0.1595E+02
  14.885  0.1041E+00  0.1595E+02
  14.895  0.1032E+00  0.1595E+02
  14.905  0.1022E+00  0.1596E+02
  14.915  0.1013E+00  0.1596E+02
  14.925  0.1003E+00  0.1596E+02
  14.935  0.9935E-01  0.1596E+02
  14.945  0.9837E-01  0.1596E+02
  14.955  0.9737E-01  0.1596E+02
  14.965  0.9635E-01  0.1596E+02
  14.975  0.9533E-01  0.1596E+02
  14.985  0.9429E-01  0.1596E+02
  14.995  0.9324E-01  0.1596E+02
  15.005  0.1399E+00  0.1597E+02
  15.015  0.1236E+00  0.1597E+02
  15.025  0.1074E+00  0.1597E+02
  15.035  0.9201E-01  0.1597E+02
  15.045  0.8953E-01  0.1597E+02
  15.055  0.8746E-01  0.1597E+02
  15.065  0.8564E-01  0.1597E+02
  15.075  0.8405E-01  0.1597E+02
  15.085  0.8262E-01  0.1597E+02
  15.095  0.8119E-01  0.1597E+02
  15.105  0.7978E-01  0.1598E+02
  15.115  0.7837E-01  0.1598E+02
  15.125  0.7696E-01  0.1598E+02
  15.135  0.7556E-01  0.1598E+02
  15.145  0.7417E-01  0.1598E+02
  15.155  0.7279E-01  0.1598E+02
  15.165  0.7141E-01  0.1598E+02
  15.175  0.7004E-01  0.1598E+02
  15.185  0.6867E-01  0.1598E+02
  15.195  0.6731E-01  0.1598E+02
  15.205  0.6596E-01  0.1598E+02
  15.215  0.6461E-01  0.1598E+02
  15.225  0.6328E-01  0.1598E+02
  15.235  0.6194E-01  0.1598E+02
  15.245  0.6062E-01  0.1599E+02
  15.255  0.5930E-01  0.1599E+02
  15.265  0.5798E-01  0.1599E+02
  15.275  0.5668E-01  0.1599E+02
  15.285  0.5538E-01  0.1599E+02
  15.295  0.5408E-01  0.1599E+02
  15.305  0.5280E-01  0.1599E+02
  15.315  0.5152E-01  0.1599E+02
  15.325  0.5024E-01  0.1599E+02
  15.335  0.4897E-01  0.1599E+02
  15.345  0.4771E-01  0.1599E+02
  15.355  0.4646E-01  0.1599E+02
  15.365  0.4521E-01  0.1599E+02
  15.375  0.4397E-01  0.1599E+02
  15.385  0.4274E-01  0.1599E+02
  15.395  0.4151E-01  0.1599E+02
  15.405  0.4029E-01  0.1599E+02
  15.415  0.3907E-01  0.1599E+02
  15.425  0.3786E-01  0.1599E+02
  15.435  0.3666E-01  0.1599E+02
  15.445  0.3546E-01  0.1599E+02
  15.455  0.3427E-01  0.1600E+02
  15.465  0.3309E-01  0.1600E+02
  15.475  0.3192E-01  0.1600E+02
  15.485  0.3075E-01  0.1600E+02
  15.495  0.2958E-01  0.1600E+02
  15.505  0.2843E-01  0.1600E+02
  15.515  0.2728E-01  0.1600E+02
  15.525  0.2613E-01  0.1600E+02
  15.535  0.2500E-01  0.1600E+02
  15.545  0.2387E-01  0.1600E+02
  15.555  0.2867E-01  0.1600E+02
  15.565  0.2598E-01  0.1600E+02
  15.575  0.2342E-01  0.1600E+02
  15.585  0.2099E-01  0.1600E+02
  15.595  0.1870E-01  0.1600E+02
  15.605  0.1654E-01  0.1600E+02
  15.615  0.1452E-01  0.1600E+02
  15.625  0.1262E-01  0.1600E+02
  15.635  0.1086E-01  0.1600E+02
  15.645  0.9234E-02  0.1600E+02
  15.655  0.7740E-02  0.1600E+02
  15.665  0.6380E-02  0.1600E+02
  15.675  0.5152E-02  0.1600E+02
  15.685  0.4058E-02  0.1600E+02
  15.695  0.3096E-02  0.1600E+02
  15.705  0.2268E-02  0.1600E+02
  15.715  0.1574E-02  0.1600E+02
  15.725  0.1012E-02  0.1600E+02
  15.735  0.5746E-03  0.1600E+02
  15.745  0.2604E-03  0.1600E+02
  15.755  0.6895E-04  0.1600E+02
  15.765  0.2205E-06  0.1600E+02
